"75CSV  	",
// AQ6375 OPTICAL SPECTRUM ANALYZER //,
25,
CTRWL,1550
SPAN,700
START WL,1200
STOP WL,1900
WLFREQ,0
REFL,-32.8
LSCL,10
RESLN,0.5
AVG,5
SMPLAUTO,1
SMPL,7001
SMPLINTVL,0.1
NORMAL,
MEAS,
LSUNT,1
NMSKH,OFF
RESCOR,0
RESPARM,9484
FREQPARM,9484
WNUMPARM,9484
,
,
,
,
,
[TRACE DATA],
1200,-51.726
1200.1,-51.284
1200.2,-51.188
1200.3,-51.75
1200.4,-51.22
1200.5,-52.065
1200.6,-52.566
1200.7,-52.37
1200.8,-52.825
1200.9,-52.53
1201,-52.492
1201.1,-51.62
1201.2,-51.392
1201.3,-51.152
1201.4,-50.902
1201.5,-50.803
1201.6,-51.363
1201.7,-51.637
1201.8,-52.021
1201.9,-52.581
1202,-52.647
1202.1,-52.708
1202.2,-51.657
1202.3,-51.562
1202.4,-50.852
1202.5,-50.55
1202.6,-50.712
1202.7,-50.928
1202.8,-51.365
1202.9,-52.007
1203,-52.288
1203.1,-52.417
1203.2,-52.339
1203.3,-52.421
1203.4,-51.895
1203.5,-50.963
1203.6,-50.884
1203.7,-50.965
1203.8,-51.152
1203.9,-51.284
1204,-51.639
1204.1,-51.647
1204.2,-52.158
1204.3,-52.403
1204.4,-52.25
1204.5,-51.625
1204.6,-51.336
1204.7,-51.103
1204.8,-50.63
1204.9,-51.023
1205,-51.095
1205.1,-51.278
1205.2,-51.841
1205.3,-52.039
1205.4,-52.351
1205.5,-51.968
1205.6,-51.84
1205.7,-51.694
1205.8,-51.372
1205.9,-51.169
1206,-51.13
1206.1,-51.106
1206.2,-51.151
1206.3,-51.275
1206.4,-51.669
1206.5,-51.957
1206.6,-52.083
1206.7,-52.289
1206.8,-52.089
1206.9,-51.531
1207,-51.125
1207.1,-51.161
1207.2,-51.183
1207.3,-50.899
1207.4,-51.018
1207.5,-51.318
1207.6,-51.826
1207.7,-52.023
1207.8,-52.202
1207.9,-52.039
1208,-51.846
1208.1,-51.352
1208.2,-51.14
1208.3,-50.472
1208.4,-50.755
1208.5,-50.985
1208.6,-51.234
1208.7,-51.709
1208.8,-52.532
1208.9,-52.262
1209,-52.499
1209.1,-51.912
1209.2,-51.382
1209.3,-50.689
1209.4,-50.474
1209.5,-50.6
1209.6,-50.921
1209.7,-51.455
1209.8,-52.165
1209.9,-52.778
1210,-52.426
1210.1,-52.548
1210.2,-51.509
1210.3,-50.738
1210.4,-50.572
1210.5,-50.284
1210.6,-50.546
1210.7,-51.086
1210.8,-52.041
1210.9,-52.732
1211,-52.824
1211.1,-52.896
1211.2,-51.588
1211.3,-51.512
1211.4,-50.635
1211.5,-50.609
1211.6,-50.692
1211.7,-50.997
1211.8,-51.273
1211.9,-52.016
1212,-52.547
1212.1,-52.606
1212.2,-51.958
1212.3,-51.368
1212.4,-50.892
1212.5,-50.977
1212.6,-50.763
1212.7,-51.435
1212.8,-51.78
1212.9,-51.947
1213,-52.34
1213.1,-52.655
1213.2,-52.383
1213.3,-51.97
1213.4,-51.369
1213.5,-50.989
1213.6,-51.265
1213.7,-51.279
1213.8,-51.861
1213.9,-51.729
1214,-52.557
1214.1,-52.45
1214.2,-52.153
1214.3,-51.792
1214.4,-51.514
1214.5,-51.608
1214.6,-51.563
1214.7,-51.622
1214.8,-51.647
1214.9,-52.067
1215,-52.599
1215.1,-52.432
1215.2,-52.232
1215.3,-51.72
1215.4,-51.489
1215.5,-51.49
1215.6,-51.505
1215.7,-51.965
1215.8,-52.064
1215.9,-52.505
1216,-52.623
1216.1,-51.813
1216.2,-51.65
1216.3,-51.586
1216.4,-51.415
1216.5,-51.773
1216.6,-51.541
1216.7,-51.796
1216.8,-52.129
1216.9,-51.971
1217,-52.054
1217.1,-51.949
1217.2,-51.523
1217.3,-51.576
1217.4,-51.314
1217.5,-51.468
1217.6,-51.966
1217.7,-52.112
1217.8,-52.121
1217.9,-52.141
1218,-51.788
1218.1,-51.977
1218.2,-51.637
1218.3,-51.82
1218.4,-51.573
1218.5,-51.495
1218.6,-51.671
1218.7,-51.766
1218.8,-51.993
1218.9,-52.055
1219,-51.989
1219.1,-51.545
1219.2,-51.612
1219.3,-51.329
1219.4,-51.308
1219.5,-51.677
1219.6,-51.92
1219.7,-52.102
1219.8,-51.645
1219.9,-52.54
1220,-52.418
1220.1,-52.098
1220.2,-51.651
1220.3,-51.388
1220.4,-51.476
1220.5,-51.286
1220.6,-51.707
1220.7,-51.903
1220.8,-52.076
1220.9,-51.886
1221,-52.331
1221.1,-51.994
1221.2,-51.591
1221.3,-51.81
1221.4,-51.408
1221.5,-51.444
1221.6,-51.368
1221.7,-51.353
1221.8,-52.032
1221.9,-51.951
1222,-51.911
1222.1,-52.028
1222.2,-51.903
1222.3,-51.801
1222.4,-51.523
1222.5,-51.325
1222.6,-51.426
1222.7,-51.439
1222.8,-51.804
1222.9,-51.947
1223,-52.148
1223.1,-52.369
1223.2,-51.966
1223.3,-51.786
1223.4,-51.373
1223.5,-50.99
1223.6,-50.959
1223.7,-51.411
1223.8,-51.65
1223.9,-51.832
1224,-51.98
1224.1,-52.727
1224.2,-52.047
1224.3,-51.547
1224.4,-51.058
1224.5,-50.832
1224.6,-50.894
1224.7,-51.21
1224.8,-52.102
1224.9,-52.634
1225,-52.323
1225.1,-52.446
1225.2,-51.803
1225.3,-51.404
1225.4,-50.964
1225.5,-50.868
1225.6,-51.141
1225.7,-51.178
1225.8,-51.855
1225.9,-52.199
1226,-51.999
1226.1,-52.348
1226.2,-51.689
1226.3,-51.323
1226.4,-51.004
1226.5,-50.748
1226.6,-50.727
1226.7,-51.229
1226.8,-51.502
1226.9,-52.311
1227,-52.246
1227.1,-52.067
1227.2,-51.595
1227.3,-51.227
1227.4,-50.872
1227.5,-50.707
1227.6,-50.87
1227.7,-51.298
1227.8,-52.277
1227.9,-52.164
1228,-52.095
1228.1,-51.74
1228.2,-51.293
1228.3,-51.254
1228.4,-50.841
1228.5,-50.698
1228.6,-51.43
1228.7,-51.816
1228.8,-51.877
1228.9,-51.977
1229,-51.953
1229.1,-51.351
1229.2,-51.265
1229.3,-50.793
1229.4,-50.709
1229.5,-51.02
1229.6,-51.584
1229.7,-51.878
1229.8,-51.897
1229.9,-52.222
1230,-51.608
1230.1,-51.562
1230.2,-51.187
1230.3,-50.995
1230.4,-51.131
1230.5,-51.175
1230.6,-51.466
1230.7,-51.811
1230.8,-51.792
1230.9,-51.91
1231,-51.663
1231.1,-51.604
1231.2,-51.297
1231.3,-51.177
1231.4,-51.253
1231.5,-51.585
1231.6,-51.605
1231.7,-51.579
1231.8,-51.636
1231.9,-51.296
1232,-51.557
1232.1,-51.363
1232.2,-51.519
1232.3,-51.19
1232.4,-51.404
1232.5,-51.59
1232.6,-51.94
1232.7,-51.545
1232.8,-51.56
1232.9,-51.574
1233,-51.918
1233.1,-51.353
1233.2,-51.433
1233.3,-51.483
1233.4,-51.752
1233.5,-51.384
1233.6,-51.874
1233.7,-51.758
1233.8,-51.505
1233.9,-51.449
1234,-51.504
1234.1,-51.609
1234.2,-51.129
1234.3,-51.67
1234.4,-51.416
1234.5,-51.529
1234.6,-51.557
1234.7,-51.601
1234.8,-51.724
1234.9,-51.479
1235,-51.397
1235.1,-51.695
1235.2,-51.444
1235.3,-51.424
1235.4,-51.735
1235.5,-51.597
1235.6,-51.994
1235.7,-51.999
1235.8,-51.681
1235.9,-51.566
1236,-51.535
1236.1,-51.403
1236.2,-51.311
1236.3,-51.398
1236.4,-51.555
1236.5,-51.801
1236.6,-51.682
1236.7,-51.546
1236.8,-51.629
1236.9,-51.411
1237,-51.429
1237.1,-51.266
1237.2,-51.594
1237.3,-51.634
1237.4,-51.655
1237.5,-51.592
1237.6,-51.423
1237.7,-51.771
1237.8,-51.544
1237.9,-51.507
1238,-51.332
1238.1,-51.674
1238.2,-51.433
1238.3,-51.732
1238.4,-51.395
1238.5,-51.791
1238.6,-51.517
1238.7,-51.49
1238.8,-51.413
1238.9,-51.41
1239,-51.435
1239.1,-51.572
1239.2,-51.583
1239.3,-51.681
1239.4,-52
1239.5,-51.38
1239.6,-51.55
1239.7,-51.311
1239.8,-51.412
1239.9,-51.665
1240,-51.72
1240.1,-51.527
1240.2,-51.891
1240.3,-51.614
1240.4,-51.784
1240.5,-51.35
1240.6,-51.444
1240.7,-51.919
1240.8,-51.474
1240.9,-51.579
1241,-51.63
1241.1,-51.54
1241.2,-51.551
1241.3,-51.437
1241.4,-51.471
1241.5,-51.257
1241.6,-51.255
1241.7,-51.453
1241.8,-51.763
1241.9,-51.502
1242,-51.749
1242.1,-51.553
1242.2,-51.582
1242.3,-51.534
1242.4,-51.46
1242.5,-51.73
1242.6,-51.646
1242.7,-51.626
1242.8,-51.807
1242.9,-51.736
1243,-51.669
1243.1,-51.592
1243.2,-51.64
1243.3,-51.884
1243.4,-51.601
1243.5,-51.96
1243.6,-51.618
1243.7,-51.748
1243.8,-51.659
1243.9,-51.628
1244,-51.408
1244.1,-51.575
1244.2,-51.697
1244.3,-51.694
1244.4,-51.84
1244.5,-51.764
1244.6,-51.942
1244.7,-51.567
1244.8,-51.657
1244.9,-51.57
1245,-51.572
1245.1,-51.581
1245.2,-51.738
1245.3,-51.715
1245.4,-51.762
1245.5,-51.645
1245.6,-51.59
1245.7,-51.896
1245.8,-51.706
1245.9,-51.423
1246,-51.624
1246.1,-51.507
1246.2,-51.789
1246.3,-51.708
1246.4,-51.582
1246.5,-51.673
1246.6,-51.921
1246.7,-51.729
1246.8,-51.85
1246.9,-52.057
1247,-51.769
1247.1,-51.784
1247.2,-52.092
1247.3,-51.671
1247.4,-51.76
1247.5,-51.726
1247.6,-51.88
1247.7,-51.839
1247.8,-51.701
1247.9,-51.768
1248,-51.765
1248.1,-51.84
1248.2,-51.949
1248.3,-51.743
1248.4,-51.9
1248.5,-51.95
1248.6,-51.72
1248.7,-51.884
1248.8,-51.884
1248.9,-51.822
1249,-51.879
1249.1,-51.635
1249.2,-51.816
1249.3,-51.806
1249.4,-51.653
1249.5,-51.846
1249.6,-51.817
1249.7,-51.558
1249.8,-51.904
1249.9,-51.665
1250,-51.896
1250.1,-51.693
1250.2,-51.735
1250.3,-51.927
1250.4,-52.008
1250.5,-51.905
1250.6,-51.697
1250.7,-51.809
1250.8,-51.755
1250.9,-51.967
1251,-51.719
1251.1,-51.49
1251.2,-51.849
1251.3,-51.706
1251.4,-51.809
1251.5,-51.907
1251.6,-51.991
1251.7,-51.765
1251.8,-51.788
1251.9,-51.696
1252,-51.89
1252.1,-51.863
1252.2,-51.938
1252.3,-51.98
1252.4,-51.889
1252.5,-52.121
1252.6,-51.799
1252.7,-52.129
1252.8,-52.182
1252.9,-51.821
1253,-51.694
1253.1,-52.017
1253.2,-52.007
1253.3,-52.036
1253.4,-51.82
1253.5,-52.062
1253.6,-52.16
1253.7,-52.12
1253.8,-52.188
1253.9,-51.761
1254,-52.116
1254.1,-51.889
1254.2,-51.973
1254.3,-51.867
1254.4,-52.059
1254.5,-52.144
1254.6,-51.975
1254.7,-51.747
1254.8,-51.9
1254.9,-51.804
1255,-52.017
1255.1,-52.032
1255.2,-51.874
1255.3,-51.746
1255.4,-51.921
1255.5,-52.095
1255.6,-51.811
1255.7,-51.801
1255.8,-51.816
1255.9,-51.851
1256,-51.727
1256.1,-51.84
1256.2,-51.865
1256.3,-51.84
1256.4,-51.908
1256.5,-51.965
1256.6,-51.813
1256.7,-52.024
1256.8,-52.072
1256.9,-51.943
1257,-52.003
1257.1,-51.737
1257.2,-52.076
1257.3,-51.973
1257.4,-51.967
1257.5,-52.066
1257.6,-52.083
1257.7,-52.052
1257.8,-52.169
1257.9,-51.847
1258,-51.974
1258.1,-52.073
1258.2,-51.937
1258.3,-52.062
1258.4,-52.115
1258.5,-52.02
1258.6,-52.084
1258.7,-51.956
1258.8,-52.13
1258.9,-51.999
1259,-51.712
1259.1,-51.859
1259.2,-52.033
1259.3,-52.156
1259.4,-52.063
1259.5,-52.085
1259.6,-51.964
1259.7,-52.013
1259.8,-51.96
1259.9,-52.136
1260,-52.023
1260.1,-51.961
1260.2,-52.075
1260.3,-52.28
1260.4,-52.147
1260.5,-52.059
1260.6,-52.145
1260.7,-52.153
1260.8,-52.236
1260.9,-51.881
1261,-52.079
1261.1,-52.079
1261.2,-52.037
1261.3,-52.115
1261.4,-52.089
1261.5,-52.21
1261.6,-52.262
1261.7,-52.249
1261.8,-52.066
1261.9,-52.15
1262,-52.281
1262.1,-52.112
1262.2,-52.135
1262.3,-52.045
1262.4,-52.313
1262.5,-52.244
1262.6,-52.185
1262.7,-52.103
1262.8,-52.144
1262.9,-52.191
1263,-52.106
1263.1,-52.365
1263.2,-52.318
1263.3,-52.331
1263.4,-52.361
1263.5,-52.284
1263.6,-52.262
1263.7,-52.363
1263.8,-52.14
1263.9,-52.214
1264,-52.258
1264.1,-52.146
1264.2,-52.321
1264.3,-52.08
1264.4,-52.298
1264.5,-52.311
1264.6,-52.294
1264.7,-52.305
1264.8,-52.298
1264.9,-52.27
1265,-52.309
1265.1,-52.327
1265.2,-52.441
1265.3,-52.442
1265.4,-52.216
1265.5,-52.416
1265.6,-52.565
1265.7,-52.147
1265.8,-52.209
1265.9,-52.215
1266,-52.562
1266.1,-52.539
1266.2,-52.5
1266.3,-52.242
1266.4,-52.401
1266.5,-52.306
1266.6,-52.431
1266.7,-52.472
1266.8,-52.497
1266.9,-52.342
1267,-52.34
1267.1,-52.553
1267.2,-52.314
1267.3,-52.415
1267.4,-52.624
1267.5,-52.469
1267.6,-52.488
1267.7,-52.485
1267.8,-52.466
1267.9,-52.362
1268,-52.659
1268.1,-52.707
1268.2,-52.561
1268.3,-52.529
1268.4,-52.687
1268.5,-52.496
1268.6,-52.53
1268.7,-52.421
1268.8,-52.62
1268.9,-52.635
1269,-52.518
1269.1,-52.718
1269.2,-52.48
1269.3,-52.377
1269.4,-52.567
1269.5,-52.663
1269.6,-52.81
1269.7,-52.667
1269.8,-52.662
1269.9,-52.583
1270,-52.713
1270.1,-52.813
1270.2,-52.712
1270.3,-52.767
1270.4,-52.834
1270.5,-52.747
1270.6,-52.772
1270.7,-52.744
1270.8,-52.454
1270.9,-52.798
1271,-52.755
1271.1,-52.554
1271.2,-52.486
1271.3,-52.41
1271.4,-52.678
1271.5,-52.747
1271.6,-52.854
1271.7,-52.821
1271.8,-52.8
1271.9,-52.792
1272,-52.88
1272.1,-52.807
1272.2,-52.856
1272.3,-52.949
1272.4,-52.844
1272.5,-52.94
1272.6,-52.704
1272.7,-52.715
1272.8,-52.71
1272.9,-52.939
1273,-52.863
1273.1,-52.816
1273.2,-52.879
1273.3,-52.605
1273.4,-52.889
1273.5,-52.837
1273.6,-52.899
1273.7,-52.914
1273.8,-52.91
1273.9,-52.935
1274,-52.727
1274.1,-52.883
1274.2,-52.884
1274.3,-52.91
1274.4,-53.222
1274.5,-52.977
1274.6,-52.984
1274.7,-53.072
1274.8,-53.124
1274.9,-52.937
1275,-53.075
1275.1,-52.878
1275.2,-52.874
1275.3,-52.866
1275.4,-53.02
1275.5,-53.059
1275.6,-52.778
1275.7,-53.068
1275.8,-53.124
1275.9,-52.947
1276,-52.844
1276.1,-53.016
1276.2,-53.032
1276.3,-53.356
1276.4,-53.133
1276.5,-52.979
1276.6,-53.099
1276.7,-53.19
1276.8,-53.451
1276.9,-53.236
1277,-53.106
1277.1,-53.209
1277.2,-52.986
1277.3,-53.176
1277.4,-52.981
1277.5,-53.251
1277.6,-53.407
1277.7,-53.479
1277.8,-53.17
1277.9,-53.207
1278,-53.322
1278.1,-53.363
1278.2,-53.387
1278.3,-53.444
1278.4,-53.516
1278.5,-53.525
1278.6,-53.337
1278.7,-53.461
1278.8,-53.608
1278.9,-53.498
1279,-53.536
1279.1,-53.364
1279.2,-53.488
1279.3,-53.399
1279.4,-53.499
1279.5,-53.266
1279.6,-53.877
1279.7,-53.386
1279.8,-53.669
1279.9,-53.549
1280,-53.736
1280.1,-53.285
1280.2,-53.452
1280.3,-53.434
1280.4,-53.514
1280.5,-53.551
1280.6,-53.789
1280.7,-53.714
1280.8,-53.396
1280.9,-53.449
1281,-53.704
1281.1,-53.7
1281.2,-53.655
1281.3,-53.587
1281.4,-53.613
1281.5,-53.704
1281.6,-53.513
1281.7,-53.461
1281.8,-53.95
1281.9,-53.596
1282,-53.825
1282.1,-53.908
1282.2,-53.584
1282.3,-53.738
1282.4,-53.589
1282.5,-53.778
1282.6,-53.732
1282.7,-53.891
1282.8,-53.819
1282.9,-53.643
1283,-53.653
1283.1,-53.688
1283.2,-53.905
1283.3,-54.128
1283.4,-53.995
1283.5,-53.799
1283.6,-54.094
1283.7,-53.733
1283.8,-53.877
1283.9,-54.176
1284,-54.037
1284.1,-53.77
1284.2,-53.951
1284.3,-54.106
1284.4,-54.134
1284.5,-53.989
1284.6,-53.877
1284.7,-54.057
1284.8,-54.135
1284.9,-53.862
1285,-54.048
1285.1,-53.945
1285.2,-53.939
1285.3,-54.237
1285.4,-54.42
1285.5,-54.376
1285.6,-54.246
1285.7,-53.806
1285.8,-54.014
1285.9,-54.404
1286,-54.143
1286.1,-54.185
1286.2,-54.128
1286.3,-54.178
1286.4,-53.978
1286.5,-54.322
1286.6,-54.355
1286.7,-54.248
1286.8,-54.195
1286.9,-54.22
1287,-54.177
1287.1,-54.733
1287.2,-54.337
1287.3,-54.345
1287.4,-54.33
1287.5,-54.451
1287.6,-54.306
1287.7,-54.081
1287.8,-54.25
1287.9,-54.487
1288,-54.732
1288.1,-54.461
1288.2,-54.661
1288.3,-54.558
1288.4,-54.471
1288.5,-54.51
1288.6,-54.678
1288.7,-54.505
1288.8,-54.352
1288.9,-54.68
1289,-54.459
1289.1,-54.565
1289.2,-54.42
1289.3,-54.425
1289.4,-54.829
1289.5,-54.45
1289.6,-54.34
1289.7,-54.462
1289.8,-54.889
1289.9,-54.66
1290,-54.568
1290.1,-54.82
1290.2,-54.561
1290.3,-54.855
1290.4,-54.808
1290.5,-54.693
1290.6,-54.813
1290.7,-54.425
1290.8,-54.88
1290.9,-54.811
1291,-54.982
1291.1,-54.667
1291.2,-54.662
1291.3,-54.686
1291.4,-54.675
1291.5,-55.088
1291.6,-54.891
1291.7,-54.809
1291.8,-54.812
1291.9,-55.013
1292,-54.727
1292.1,-55.184
1292.2,-54.854
1292.3,-54.828
1292.4,-54.925
1292.5,-54.843
1292.6,-55.186
1292.7,-55.065
1292.8,-54.852
1292.9,-55.024
1293,-54.934
1293.1,-55.056
1293.2,-54.912
1293.3,-54.833
1293.4,-54.865
1293.5,-55.062
1293.6,-55.073
1293.7,-54.833
1293.8,-55.095
1293.9,-54.914
1294,-54.879
1294.1,-54.943
1294.2,-54.941
1294.3,-54.724
1294.4,-55.272
1294.5,-54.958
1294.6,-54.978
1294.7,-55.246
1294.8,-55.044
1294.9,-55.001
1295,-55.195
1295.1,-55.166
1295.2,-55.587
1295.3,-55.02
1295.4,-55.284
1295.5,-55.507
1295.6,-55.161
1295.7,-55.06
1295.8,-55.177
1295.9,-55.05
1296,-55.16
1296.1,-55.119
1296.2,-55.059
1296.3,-55.241
1296.4,-55.277
1296.5,-54.965
1296.6,-55.426
1296.7,-55.356
1296.8,-55.065
1296.9,-55.286
1297,-55.432
1297.1,-55.211
1297.2,-55.498
1297.3,-55.251
1297.4,-55.314
1297.5,-55.422
1297.6,-55.798
1297.7,-56.105
1297.8,-55.56
1297.9,-55.497
1298,-55.691
1298.1,-55.724
1298.2,-55.419
1298.3,-55.22
1298.4,-55.487
1298.5,-55.184
1298.6,-55.438
1298.7,-55.515
1298.8,-55.627
1298.9,-55.405
1299,-55.664
1299.1,-55.52
1299.2,-55.307
1299.3,-55.558
1299.4,-55.935
1299.5,-55.777
1299.6,-55.705
1299.7,-55.658
1299.8,-55.547
1299.9,-56.01
1300,-55.919
1300.1,-55.775
1300.2,-55.659
1300.3,-55.878
1300.4,-55.686
1300.5,-55.672
1300.6,-55.989
1300.7,-55.756
1300.8,-55.692
1300.9,-56.074
1301,-55.771
1301.1,-55.843
1301.2,-55.653
1301.3,-56.171
1301.4,-56.102
1301.5,-56.131
1301.6,-55.951
1301.7,-55.913
1301.8,-56.204
1301.9,-56.194
1302,-55.685
1302.1,-56.129
1302.2,-56.057
1302.3,-56.11
1302.4,-56.016
1302.5,-55.902
1302.6,-56.254
1302.7,-56.144
1302.8,-55.809
1302.9,-56.037
1303,-55.675
1303.1,-56.121
1303.2,-56.044
1303.3,-55.894
1303.4,-55.811
1303.5,-55.867
1303.6,-56.386
1303.7,-55.825
1303.8,-55.783
1303.9,-55.806
1304,-55.95
1304.1,-56.047
1304.2,-55.924
1304.3,-56.009
1304.4,-56.31
1304.5,-56.206
1304.6,-56.182
1304.7,-56.388
1304.8,-55.988
1304.9,-56.342
1305,-56.218
1305.1,-56.309
1305.2,-56.425
1305.3,-56.143
1305.4,-56.263
1305.5,-56.389
1305.6,-56.166
1305.7,-56.345
1305.8,-56.11
1305.9,-56.161
1306,-56.007
1306.1,-56.043
1306.2,-56.423
1306.3,-55.97
1306.4,-56.501
1306.5,-56.347
1306.6,-56.368
1306.7,-55.756
1306.8,-56.526
1306.9,-56.483
1307,-56.185
1307.1,-56.182
1307.2,-56.367
1307.3,-56.721
1307.4,-56.547
1307.5,-56.236
1307.6,-55.935
1307.7,-56.279
1307.8,-56.671
1307.9,-56.242
1308,-56.806
1308.1,-56.398
1308.2,-56.49
1308.3,-56.447
1308.4,-56.041
1308.5,-56.609
1308.6,-56.868
1308.7,-56.167
1308.8,-56.6
1308.9,-56.14
1309,-56.64
1309.1,-56.644
1309.2,-56.444
1309.3,-56.763
1309.4,-56.45
1309.5,-56.443
1309.6,-56.33
1309.7,-56.714
1309.8,-56.894
1309.9,-56.373
1310,-56.572
1310.1,-56.366
1310.2,-56.463
1310.3,-56.835
1310.4,-56.797
1310.5,-56.765
1310.6,-56.814
1310.7,-56.38
1310.8,-56.929
1310.9,-56.887
1311,-56.483
1311.1,-56.358
1311.2,-56.604
1311.3,-56.658
1311.4,-56.828
1311.5,-56.657
1311.6,-56.537
1311.7,-56.835
1311.8,-57.019
1311.9,-56.86
1312,-56.444
1312.1,-57.002
1312.2,-56.723
1312.3,-56.706
1312.4,-57.06
1312.5,-56.668
1312.6,-56.63
1312.7,-56.901
1312.8,-56.701
1312.9,-56.469
1313,-56.817
1313.1,-56.951
1313.2,-56.584
1313.3,-57.086
1313.4,-56.636
1313.5,-56.554
1313.6,-56.742
1313.7,-56.738
1313.8,-56.936
1313.9,-56.741
1314,-57.078
1314.1,-56.746
1314.2,-56.597
1314.3,-56.465
1314.4,-56.68
1314.5,-56.419
1314.6,-56.79
1314.7,-56.747
1314.8,-57.344
1314.9,-56.679
1315,-56.817
1315.1,-56.887
1315.2,-57.108
1315.3,-56.712
1315.4,-56.796
1315.5,-56.968
1315.6,-56.679
1315.7,-56.846
1315.8,-56.816
1315.9,-56.781
1316,-56.92
1316.1,-57.056
1316.2,-56.9
1316.3,-56.766
1316.4,-57.581
1316.5,-56.574
1316.6,-56.865
1316.7,-56.89
1316.8,-57.092
1316.9,-57.03
1317,-56.735
1317.1,-56.983
1317.2,-56.833
1317.3,-57.343
1317.4,-56.637
1317.5,-56.515
1317.6,-56.617
1317.7,-57.471
1317.8,-56.383
1317.9,-57.284
1318,-57.169
1318.1,-56.866
1318.2,-57.237
1318.3,-56.657
1318.4,-56.964
1318.5,-56.711
1318.6,-56.888
1318.7,-56.94
1318.8,-57.105
1318.9,-56.894
1319,-56.913
1319.1,-57.137
1319.2,-57.032
1319.3,-56.797
1319.4,-57.488
1319.5,-57.102
1319.6,-57.098
1319.7,-57.173
1319.8,-56.979
1319.9,-56.556
1320,-57.187
1320.1,-57.277
1320.2,-57.174
1320.3,-57.197
1320.4,-57.06
1320.5,-57.146
1320.6,-57.104
1320.7,-57.293
1320.8,-56.906
1320.9,-56.531
1321,-57.236
1321.1,-57.001
1321.2,-57.386
1321.3,-56.92
1321.4,-57.102
1321.5,-57.212
1321.6,-56.964
1321.7,-56.978
1321.8,-56.864
1321.9,-56.982
1322,-57.131
1322.1,-57.232
1322.2,-57.09
1322.3,-56.915
1322.4,-57.284
1322.5,-57.054
1322.6,-56.761
1322.7,-57.324
1322.8,-57.119
1322.9,-57.953
1323,-57.358
1323.1,-57.117
1323.2,-57.089
1323.3,-57.161
1323.4,-57.497
1323.5,-57.39
1323.6,-57.415
1323.7,-57.253
1323.8,-56.761
1323.9,-57.413
1324,-57.36
1324.1,-57.135
1324.2,-57.154
1324.3,-57.295
1324.4,-57.187
1324.5,-57.051
1324.6,-57.341
1324.7,-57.185
1324.8,-57.032
1324.9,-57.236
1325,-57.569
1325.1,-57.605
1325.2,-57.495
1325.3,-57.572
1325.4,-57.298
1325.5,-57.03
1325.6,-57.307
1325.7,-56.895
1325.8,-57.141
1325.9,-57.429
1326,-56.993
1326.1,-56.928
1326.2,-57.005
1326.3,-56.442
1326.4,-57.317
1326.5,-56.84
1326.6,-56.829
1326.7,-57.265
1326.8,-57.497
1326.9,-56.949
1327,-57.344
1327.1,-57.095
1327.2,-56.978
1327.3,-56.921
1327.4,-56.881
1327.5,-57.447
1327.6,-56.858
1327.7,-57.142
1327.8,-57.226
1327.9,-57.125
1328,-57.22
1328.1,-57.255
1328.2,-57.027
1328.3,-57.044
1328.4,-56.767
1328.5,-57.357
1328.6,-56.923
1328.7,-57.532
1328.8,-57.075
1328.9,-56.91
1329,-56.847
1329.1,-57.307
1329.2,-57.009
1329.3,-56.784
1329.4,-57.656
1329.5,-56.951
1329.6,-56.609
1329.7,-56.784
1329.8,-56.808
1329.9,-56.94
1330,-57
1330.1,-57.117
1330.2,-57.262
1330.3,-57.158
1330.4,-57.126
1330.5,-57.166
1330.6,-56.77
1330.7,-57.038
1330.8,-57.153
1330.9,-56.942
1331,-57.064
1331.1,-56.422
1331.2,-56.994
1331.3,-57.216
1331.4,-57.265
1331.5,-57.19
1331.6,-56.642
1331.7,-57.096
1331.8,-57.114
1331.9,-57.201
1332,-57.657
1332.1,-57.285
1332.2,-56.705
1332.3,-56.739
1332.4,-56.89
1332.5,-56.935
1332.6,-56.989
1332.7,-57.319
1332.8,-56.692
1332.9,-56.928
1333,-56.938
1333.1,-57.32
1333.2,-56.767
1333.3,-57.324
1333.4,-57.209
1333.5,-57.017
1333.6,-57.064
1333.7,-57.01
1333.8,-56.891
1333.9,-57.066
1334,-57.052
1334.1,-56.771
1334.2,-56.931
1334.3,-56.952
1334.4,-56.952
1334.5,-56.597
1334.6,-56.638
1334.7,-56.65
1334.8,-56.933
1334.9,-56.992
1335,-56.811
1335.1,-56.842
1335.2,-56.897
1335.3,-56.598
1335.4,-56.966
1335.5,-56.631
1335.6,-56.539
1335.7,-56.915
1335.8,-56.783
1335.9,-56.863
1336,-56.483
1336.1,-56.694
1336.2,-56.874
1336.3,-56.992
1336.4,-56.527
1336.5,-56.862
1336.6,-57.214
1336.7,-56.693
1336.8,-56.803
1336.9,-56.721
1337,-56.674
1337.1,-57.331
1337.2,-56.65
1337.3,-56.67
1337.4,-56.515
1337.5,-56.441
1337.6,-56.844
1337.7,-56.174
1337.8,-56.791
1337.9,-56.434
1338,-56.577
1338.1,-56.62
1338.2,-56.483
1338.3,-56.801
1338.4,-56.503
1338.5,-56.882
1338.6,-56.58
1338.7,-56.485
1338.8,-56.701
1338.9,-56.601
1339,-56.289
1339.1,-56.137
1339.2,-56.518
1339.3,-56.57
1339.4,-56.427
1339.5,-56.608
1339.6,-56.469
1339.7,-56.463
1339.8,-56.201
1339.9,-56.2
1340,-56.563
1340.1,-56.255
1340.2,-56.513
1340.3,-56.3
1340.4,-56.168
1340.5,-56.684
1340.6,-56.322
1340.7,-56.05
1340.8,-56.087
1340.9,-56.21
1341,-56.291
1341.1,-55.951
1341.2,-55.884
1341.3,-55.884
1341.4,-56.101
1341.5,-56.263
1341.6,-56.114
1341.7,-55.952
1341.8,-55.829
1341.9,-55.867
1342,-56.371
1342.1,-56.101
1342.2,-55.995
1342.3,-56.084
1342.4,-55.902
1342.5,-55.914
1342.6,-55.992
1342.7,-56.307
1342.8,-55.919
1342.9,-55.548
1343,-55.926
1343.1,-56.107
1343.2,-55.838
1343.3,-55.852
1343.4,-55.671
1343.5,-55.547
1343.6,-55.893
1343.7,-55.752
1343.8,-55.883
1343.9,-55.492
1344,-56.004
1344.1,-55.596
1344.2,-55.409
1344.3,-55.586
1344.4,-55.627
1344.5,-55.366
1344.6,-55.927
1344.7,-55.408
1344.8,-55.604
1344.9,-55.525
1345,-55.298
1345.1,-55.353
1345.2,-55.213
1345.3,-55.391
1345.4,-55.241
1345.5,-55.151
1345.6,-55.308
1345.7,-55.204
1345.8,-54.888
1345.9,-55.386
1346,-55.527
1346.1,-55.271
1346.2,-55.323
1346.3,-55.211
1346.4,-55.082
1346.5,-54.977
1346.6,-55.425
1346.7,-55.208
1346.8,-55.356
1346.9,-55.197
1347,-55.045
1347.1,-55.193
1347.2,-55.096
1347.3,-54.96
1347.4,-54.915
1347.5,-55.07
1347.6,-55.125
1347.7,-54.862
1347.8,-55.052
1347.9,-55.326
1348,-55.003
1348.1,-55.16
1348.2,-54.897
1348.3,-54.898
1348.4,-55.079
1348.5,-55.098
1348.6,-54.854
1348.7,-54.916
1348.8,-54.902
1348.9,-54.712
1349,-55.079
1349.1,-54.824
1349.2,-54.675
1349.3,-54.686
1349.4,-54.793
1349.5,-54.623
1349.6,-54.439
1349.7,-54.638
1349.8,-54.516
1349.9,-54.752
1350,-54.462
1350.1,-54.613
1350.2,-54.439
1350.3,-54.548
1350.4,-54.757
1350.5,-54.652
1350.6,-54.829
1350.7,-54.626
1350.8,-54.58
1350.9,-54.274
1351,-54.425
1351.1,-54.381
1351.2,-54.293
1351.3,-54.191
1351.4,-54.177
1351.5,-54.294
1351.6,-54.416
1351.7,-54.474
1351.8,-54.405
1351.9,-54.331
1352,-54.128
1352.1,-54.43
1352.2,-54.184
1352.3,-54.106
1352.4,-53.873
1352.5,-54.231
1352.6,-53.995
1352.7,-54.077
1352.8,-54.244
1352.9,-53.971
1353,-53.928
1353.1,-53.923
1353.2,-54.063
1353.3,-54.002
1353.4,-53.966
1353.5,-53.986
1353.6,-53.93
1353.7,-53.921
1353.8,-53.719
1353.9,-53.926
1354,-53.855
1354.1,-53.67
1354.2,-53.714
1354.3,-53.67
1354.4,-53.758
1354.5,-53.72
1354.6,-53.737
1354.7,-53.91
1354.8,-53.845
1354.9,-53.973
1355,-54.156
1355.1,-54.14
1355.2,-53.921
1355.3,-53.624
1355.4,-53.468
1355.5,-53.65
1355.6,-53.44
1355.7,-53.383
1355.8,-53.568
1355.9,-53.885
1356,-53.832
1356.1,-53.705
1356.2,-53.598
1356.3,-53.27
1356.4,-53.17
1356.5,-53.229
1356.6,-53.149
1356.7,-53.009
1356.8,-53.083
1356.9,-53.1
1357,-52.908
1357.1,-53.352
1357.2,-53.426
1357.3,-53.44
1357.4,-53.369
1357.5,-53.267
1357.6,-52.841
1357.7,-52.835
1357.8,-53.03
1357.9,-52.977
1358,-52.921
1358.1,-52.843
1358.2,-52.914
1358.3,-52.684
1358.4,-52.942
1358.5,-52.991
1358.6,-53.019
1358.7,-52.818
1358.8,-52.873
1358.9,-52.591
1359,-52.55
1359.1,-52.439
1359.2,-52.461
1359.3,-52.364
1359.4,-52.472
1359.5,-52.816
1359.6,-52.941
1359.7,-53.026
1359.8,-53.138
1359.9,-52.7
1360,-52.482
1360.1,-52.417
1360.2,-52.232
1360.3,-52.399
1360.4,-52.379
1360.5,-52.195
1360.6,-52.29
1360.7,-52.26
1360.8,-52.455
1360.9,-52.547
1361,-52.573
1361.1,-52.734
1361.2,-52.684
1361.3,-52.272
1361.4,-52.263
1361.5,-52.04
1361.6,-52.024
1361.7,-52.566
1361.8,-52.561
1361.9,-52.642
1362,-52.754
1362.1,-52.429
1362.2,-52.211
1362.3,-52.496
1362.4,-53.128
1362.5,-52.975
1362.6,-52.688
1362.7,-52.802
1362.8,-52.449
1362.9,-51.869
1363,-51.801
1363.1,-51.763
1363.2,-51.576
1363.3,-51.488
1363.4,-51.448
1363.5,-51.334
1363.6,-51.371
1363.7,-51.332
1363.8,-51.303
1363.9,-51.318
1364,-51.414
1364.1,-51.413
1364.2,-51.527
1364.3,-51.584
1364.4,-51.496
1364.5,-51.646
1364.6,-51.789
1364.7,-52.118
1364.8,-52.379
1364.9,-52.366
1365,-52.189
1365.1,-51.429
1365.2,-51.266
1365.3,-51.216
1365.4,-51.475
1365.5,-51.501
1365.6,-51.754
1365.7,-51.628
1365.8,-51.292
1365.9,-51.068
1366,-50.908
1366.1,-50.769
1366.2,-50.855
1366.3,-50.885
1366.4,-50.779
1366.5,-50.731
1366.6,-50.784
1366.7,-50.608
1366.8,-50.667
1366.9,-50.851
1367,-50.884
1367.1,-50.897
1367.2,-50.869
1367.3,-50.7
1367.4,-50.486
1367.5,-50.533
1367.6,-50.859
1367.7,-50.76
1367.8,-51.052
1367.9,-51.246
1368,-50.95
1368.1,-50.809
1368.2,-50.741
1368.3,-50.273
1368.4,-50.298
1368.5,-50.434
1368.6,-50.951
1368.7,-50.91
1368.8,-51.004
1368.9,-50.827
1369,-50.354
1369.1,-50.023
1369.2,-49.977
1369.3,-49.931
1369.4,-49.963
1369.5,-49.899
1369.6,-49.823
1369.7,-49.779
1369.8,-49.796
1369.9,-50.015
1370,-50.247
1370.1,-50.348
1370.2,-50.23
1370.3,-50.09
1370.4,-49.821
1370.5,-49.77
1370.6,-49.649
1370.7,-49.573
1370.8,-49.69
1370.9,-50.079
1371,-50.41
1371.1,-50.445
1371.2,-50.418
1371.3,-50.401
1371.4,-49.843
1371.5,-49.578
1371.6,-49.479
1371.7,-49.561
1371.8,-49.509
1371.9,-49.438
1372,-49.478
1372.1,-49.689
1372.2,-49.632
1372.3,-49.716
1372.4,-49.674
1372.5,-49.58
1372.6,-49.367
1372.7,-49.31
1372.8,-49.142
1372.9,-49.151
1373,-49.195
1373.1,-49.266
1373.2,-49.18
1373.3,-49.186
1373.4,-49.255
1373.5,-49.234
1373.6,-49.128
1373.7,-49.044
1373.8,-49.021
1373.9,-48.932
1374,-48.921
1374.1,-48.952
1374.2,-48.891
1374.3,-48.937
1374.4,-48.977
1374.5,-48.826
1374.6,-48.883
1374.7,-48.887
1374.8,-48.87
1374.9,-48.908
1375,-49.035
1375.1,-48.961
1375.2,-48.824
1375.3,-48.74
1375.4,-48.524
1375.5,-48.495
1375.6,-48.499
1375.7,-48.488
1375.8,-48.582
1375.9,-48.636
1376,-48.684
1376.1,-48.654
1376.2,-48.575
1376.3,-48.491
1376.4,-48.431
1376.5,-48.38
1376.6,-48.359
1376.7,-48.388
1376.8,-48.297
1376.9,-48.473
1377,-48.57
1377.1,-48.666
1377.2,-48.669
1377.3,-48.637
1377.4,-48.401
1377.5,-48.302
1377.6,-48.195
1377.7,-48.17
1377.8,-48.048
1377.9,-48.02
1378,-48.005
1378.1,-47.988
1378.2,-47.906
1378.3,-47.911
1378.4,-47.904
1378.5,-48.087
1378.6,-48.116
1378.7,-48.309
1378.8,-48.462
1378.9,-48.466
1379,-48.275
1379.1,-48.17
1379.2,-47.884
1379.3,-47.808
1379.4,-47.713
1379.5,-47.598
1379.6,-47.626
1379.7,-47.684
1379.8,-47.6
1379.9,-47.476
1380,-47.558
1380.1,-47.66
1380.2,-47.639
1380.3,-47.647
1380.4,-47.722
1380.5,-47.778
1380.6,-48.306
1380.7,-48.842
1380.8,-48.933
1380.9,-48.795
1381,-48.492
1381.1,-48.186
1381.2,-47.672
1381.3,-47.681
1381.4,-47.637
1381.5,-47.421
1381.6,-47.135
1381.7,-47.2
1381.8,-47.129
1381.9,-47.128
1382,-47.235
1382.1,-47.2
1382.2,-47.216
1382.3,-47.198
1382.4,-47.347
1382.5,-47.513
1382.6,-47.864
1382.7,-48.578
1382.8,-48.778
1382.9,-48.592
1383,-48.502
1383.1,-47.935
1383.2,-47.432
1383.3,-47.244
1383.4,-46.977
1383.5,-46.866
1383.6,-46.888
1383.7,-46.898
1383.8,-47.049
1383.9,-47.21
1384,-47.184
1384.1,-47.124
1384.2,-46.953
1384.3,-46.592
1384.4,-46.567
1384.5,-46.532
1384.6,-46.49
1384.7,-46.523
1384.8,-46.451
1384.9,-46.53
1385,-46.667
1385.1,-46.955
1385.2,-46.94
1385.3,-46.832
1385.4,-46.806
1385.5,-46.443
1385.6,-46.337
1385.7,-46.339
1385.8,-46.277
1385.9,-46.35
1386,-46.411
1386.1,-46.422
1386.2,-46.325
1386.3,-46.223
1386.4,-46.278
1386.5,-46.218
1386.6,-46.184
1386.7,-46.167
1386.8,-45.967
1386.9,-45.921
1387,-45.938
1387.1,-45.9
1387.2,-45.803
1387.3,-45.829
1387.4,-45.82
1387.5,-45.748
1387.6,-45.717
1387.7,-45.839
1387.8,-46.186
1387.9,-46.265
1388,-46.37
1388.1,-46.524
1388.2,-46.429
1388.3,-46.264
1388.4,-46.273
1388.5,-46.117
1388.6,-45.995
1388.7,-45.787
1388.8,-45.606
1388.9,-45.566
1389,-45.6
1389.1,-45.594
1389.2,-45.515
1389.3,-45.513
1389.4,-45.502
1389.5,-45.439
1389.6,-45.354
1389.7,-45.413
1389.8,-45.502
1389.9,-45.57
1390,-45.646
1390.1,-45.683
1390.2,-45.566
1390.3,-45.386
1390.4,-45.371
1390.5,-45.317
1390.6,-45.245
1390.7,-45.231
1390.8,-45.25
1390.9,-45.213
1391,-45.204
1391.1,-45.22
1391.2,-45.113
1391.3,-45.079
1391.4,-45.028
1391.5,-44.994
1391.6,-44.975
1391.7,-44.968
1391.8,-44.963
1391.9,-44.966
1392,-44.969
1392.1,-45.051
1392.2,-45.185
1392.3,-45.293
1392.4,-45.406
1392.5,-45.974
1392.6,-45.868
1392.7,-45.849
1392.8,-45.748
1392.9,-45.425
1393,-44.914
1393.1,-44.797
1393.2,-44.774
1393.3,-44.702
1393.4,-44.695
1393.5,-44.665
1393.6,-44.582
1393.7,-44.581
1393.8,-44.56
1393.9,-44.561
1394,-44.467
1394.1,-44.517
1394.2,-44.549
1394.3,-44.471
1394.4,-44.443
1394.5,-44.448
1394.6,-44.529
1394.7,-44.539
1394.8,-44.554
1394.9,-44.654
1395,-45.079
1395.1,-45.032
1395.2,-45.075
1395.3,-44.973
1395.4,-44.666
1395.5,-44.771
1395.6,-44.804
1395.7,-44.785
1395.8,-44.866
1395.9,-44.632
1396,-44.374
1396.1,-44.272
1396.2,-44.277
1396.3,-44.56
1396.4,-44.777
1396.5,-44.901
1396.6,-45.138
1396.7,-44.927
1396.8,-44.449
1396.9,-44.302
1397,-43.975
1397.1,-43.898
1397.2,-44.002
1397.3,-44.015
1397.4,-43.974
1397.5,-43.978
1397.6,-43.918
1397.7,-43.839
1397.8,-43.743
1397.9,-43.712
1398,-43.66
1398.1,-43.695
1398.2,-43.742
1398.3,-43.766
1398.4,-43.755
1398.5,-43.723
1398.6,-43.651
1398.7,-43.567
1398.8,-43.578
1398.9,-43.622
1399,-43.571
1399.1,-43.553
1399.2,-43.579
1399.3,-43.536
1399.4,-43.525
1399.5,-43.868
1399.6,-43.946
1399.7,-43.909
1399.8,-43.876
1399.9,-43.708
1400,-43.599
1400.1,-43.588
1400.2,-43.59
1400.3,-43.68
1400.4,-43.644
1400.5,-43.526
1400.6,-43.75
1400.7,-44.215
1400.8,-44.09
1400.9,-44.07
1401,-43.99
1401.1,-43.608
1401.2,-43.225
1401.3,-43.284
1401.4,-43.32
1401.5,-43.398
1401.6,-43.407
1401.7,-43.312
1401.8,-43.241
1401.9,-43.17
1402,-43.062
1402.1,-43.022
1402.2,-42.948
1402.3,-42.996
1402.4,-43.005
1402.5,-42.986
1402.6,-42.943
1402.7,-42.948
1402.8,-42.867
1402.9,-42.844
1403,-42.843
1403.1,-42.849
1403.2,-42.822
1403.3,-42.787
1403.4,-42.715
1403.5,-42.65
1403.6,-42.603
1403.7,-42.623
1403.8,-42.652
1403.9,-42.703
1404,-42.72
1404.1,-42.788
1404.2,-42.761
1404.3,-42.764
1404.4,-42.844
1404.5,-42.866
1404.6,-42.777
1404.7,-42.818
1404.8,-42.805
1404.9,-43.051
1405,-43.6
1405.1,-43.673
1405.2,-43.614
1405.3,-43.461
1405.4,-42.951
1405.5,-42.641
1405.6,-42.546
1405.7,-42.5
1405.8,-42.446
1405.9,-42.364
1406,-42.334
1406.1,-42.345
1406.2,-42.33
1406.3,-42.308
1406.4,-42.329
1406.5,-42.359
1406.6,-42.31
1406.7,-42.373
1406.8,-42.424
1406.9,-42.426
1407,-42.414
1407.1,-42.399
1407.2,-42.414
1407.3,-42.619
1407.4,-42.613
1407.5,-42.655
1407.6,-42.587
1407.7,-42.352
1407.8,-42.265
1407.9,-42.214
1408,-42.07
1408.1,-42.089
1408.2,-42.081
1408.3,-42.092
1408.4,-42.041
1408.5,-42.078
1408.6,-42.069
1408.7,-42.036
1408.8,-42.008
1408.9,-42.078
1409,-42.107
1409.1,-42.104
1409.2,-42.21
1409.3,-42.271
1409.4,-42.263
1409.5,-42.489
1409.6,-42.55
1409.7,-42.299
1409.8,-42.252
1409.9,-42.082
1410,-41.923
1410.1,-41.806
1410.2,-41.801
1410.3,-41.787
1410.4,-41.705
1410.5,-41.732
1410.6,-41.797
1410.7,-41.745
1410.8,-41.735
1410.9,-41.74
1411,-41.676
1411.1,-41.636
1411.2,-41.659
1411.3,-41.693
1411.4,-41.704
1411.5,-41.707
1411.6,-41.688
1411.7,-41.608
1411.8,-41.591
1411.9,-41.553
1412,-41.545
1412.1,-41.533
1412.2,-41.611
1412.3,-41.707
1412.4,-41.672
1412.5,-41.626
1412.6,-41.557
1412.7,-41.438
1412.8,-41.361
1412.9,-41.36
1413,-41.347
1413.1,-41.34
1413.2,-41.366
1413.3,-41.363
1413.4,-41.37
1413.5,-41.325
1413.6,-41.355
1413.7,-41.406
1413.8,-41.427
1413.9,-41.403
1414,-41.433
1414.1,-41.606
1414.2,-41.72
1414.3,-41.746
1414.4,-41.733
1414.5,-41.585
1414.6,-41.563
1414.7,-41.52
1414.8,-41.577
1414.9,-41.535
1415,-41.47
1415.1,-41.366
1415.2,-41.293
1415.3,-41.179
1415.4,-41.184
1415.5,-41.205
1415.6,-41.188
1415.7,-41.181
1415.8,-41.148
1415.9,-41.107
1416,-41.089
1416.1,-41.069
1416.2,-41.053
1416.3,-40.996
1416.4,-41.035
1416.5,-41.039
1416.6,-41.009
1416.7,-40.965
1416.8,-40.96
1416.9,-40.97
1417,-40.922
1417.1,-40.903
1417.2,-40.936
1417.3,-40.924
1417.4,-40.928
1417.5,-40.988
1417.6,-41.044
1417.7,-41.03
1417.8,-40.991
1417.9,-40.979
1418,-40.91
1418.1,-40.896
1418.2,-40.926
1418.3,-40.913
1418.4,-40.871
1418.5,-40.801
1418.6,-40.805
1418.7,-40.76
1418.8,-40.763
1418.9,-40.855
1419,-40.916
1419.1,-40.898
1419.2,-40.909
1419.3,-40.841
1419.4,-40.701
1419.5,-40.644
1419.6,-40.683
1419.7,-40.649
1419.8,-40.592
1419.9,-40.641
1420,-40.682
1420.1,-40.617
1420.2,-40.56
1420.3,-40.522
1420.4,-40.481
1420.5,-40.456
1420.6,-40.493
1420.7,-40.55
1420.8,-40.525
1420.9,-40.505
1421,-40.488
1421.1,-40.459
1421.2,-40.391
1421.3,-40.35
1421.4,-40.373
1421.5,-40.392
1421.6,-40.354
1421.7,-40.368
1421.8,-40.327
1421.9,-40.259
1422,-40.21
1422.1,-40.21
1422.2,-40.182
1422.3,-40.143
1422.4,-40.177
1422.5,-40.166
1422.6,-40.14
1422.7,-40.106
1422.8,-40.123
1422.9,-40.097
1423,-40.052
1423.1,-40.083
1423.2,-40.076
1423.3,-40.106
1423.4,-40.144
1423.5,-40.163
1423.6,-40.078
1423.7,-40.039
1423.8,-40.049
1423.9,-40.128
1424,-40.158
1424.1,-40.155
1424.2,-40.145
1424.3,-40.07
1424.4,-39.969
1424.5,-39.894
1424.6,-39.885
1424.7,-39.863
1424.8,-39.855
1424.9,-39.861
1425,-39.887
1425.1,-39.86
1425.2,-39.834
1425.3,-39.854
1425.4,-39.808
1425.5,-39.761
1425.6,-39.812
1425.7,-39.808
1425.8,-39.793
1425.9,-39.834
1426,-39.824
1426.1,-39.779
1426.2,-39.706
1426.3,-39.681
1426.4,-39.692
1426.5,-39.68
1426.6,-39.699
1426.7,-39.718
1426.8,-39.718
1426.9,-39.692
1427,-39.684
1427.1,-39.656
1427.2,-39.633
1427.3,-39.663
1427.4,-39.685
1427.5,-39.677
1427.6,-39.659
1427.7,-39.657
1427.8,-39.647
1427.9,-39.589
1428,-39.508
1428.1,-39.565
1428.2,-39.557
1428.3,-39.559
1428.4,-39.568
1428.5,-39.588
1428.6,-39.51
1428.7,-39.475
1428.8,-39.421
1428.9,-39.454
1429,-39.42
1429.1,-39.424
1429.2,-39.421
1429.3,-39.404
1429.4,-39.367
1429.5,-39.361
1429.6,-39.351
1429.7,-39.333
1429.8,-39.326
1429.9,-39.4
1430,-39.379
1430.1,-39.388
1430.2,-39.428
1430.3,-39.387
1430.4,-39.322
1430.5,-39.275
1430.6,-39.3
1430.7,-39.283
1430.8,-39.269
1430.9,-39.286
1431,-39.335
1431.1,-39.376
1431.2,-39.353
1431.3,-39.36
1431.4,-39.326
1431.5,-39.298
1431.6,-39.274
1431.7,-39.283
1431.8,-39.298
1431.9,-39.307
1432,-39.227
1432.1,-39.164
1432.2,-39.138
1432.3,-39.149
1432.4,-39.214
1432.5,-39.218
1432.6,-39.229
1432.7,-39.243
1432.8,-39.151
1432.9,-39.11
1433,-39.081
1433.1,-39.081
1433.2,-39.056
1433.3,-39.015
1433.4,-39.049
1433.5,-39.075
1433.6,-39.07
1433.7,-39.067
1433.8,-39.068
1433.9,-39.056
1434,-39.007
1434.1,-39.002
1434.2,-39.008
1434.3,-39.096
1434.4,-39.166
1434.5,-39.174
1434.6,-39.142
1434.7,-39.063
1434.8,-38.945
1434.9,-38.922
1435,-38.875
1435.1,-38.866
1435.2,-38.905
1435.3,-38.907
1435.4,-38.869
1435.5,-38.825
1435.6,-38.82
1435.7,-38.801
1435.8,-38.766
1435.9,-38.782
1436,-38.827
1436.1,-38.864
1436.2,-38.87
1436.3,-38.894
1436.4,-38.882
1436.5,-38.792
1436.6,-38.788
1436.7,-38.841
1436.8,-38.851
1436.9,-38.842
1437,-38.869
1437.1,-38.91
1437.2,-38.9
1437.3,-38.88
1437.4,-38.869
1437.5,-38.881
1437.6,-38.874
1437.7,-38.945
1437.8,-38.998
1437.9,-38.97
1438,-38.939
1438.1,-38.905
1438.2,-38.814
1438.3,-38.713
1438.4,-38.674
1438.5,-38.705
1438.6,-38.709
1438.7,-38.674
1438.8,-38.679
1438.9,-38.71
1439,-38.672
1439.1,-38.644
1439.2,-38.643
1439.3,-38.671
1439.4,-38.704
1439.5,-38.761
1439.6,-38.813
1439.7,-38.83
1439.8,-38.778
1439.9,-38.769
1440,-38.782
1440.1,-38.712
1440.2,-38.701
1440.3,-38.745
1440.4,-38.781
1440.5,-38.751
1440.6,-38.74
1440.7,-38.778
1440.8,-38.736
1440.9,-38.684
1441,-38.673
1441.1,-38.703
1441.2,-38.683
1441.3,-38.684
1441.4,-38.775
1441.5,-38.764
1441.6,-38.71
1441.7,-38.69
1441.8,-38.669
1441.9,-38.524
1442,-38.502
1442.1,-38.524
1442.2,-38.539
1442.3,-38.525
1442.4,-38.513
1442.5,-38.529
1442.6,-38.499
1442.7,-38.487
1442.8,-38.537
1442.9,-38.636
1443,-38.658
1443.1,-38.655
1443.2,-38.694
1443.3,-38.667
1443.4,-38.605
1443.5,-38.592
1443.6,-38.614
1443.7,-38.652
1443.8,-38.633
1443.9,-38.653
1444,-38.659
1444.1,-38.648
1444.2,-38.599
1444.3,-38.608
1444.4,-38.618
1444.5,-38.57
1444.6,-38.569
1444.7,-38.575
1444.8,-38.579
1444.9,-38.527
1445,-38.55
1445.1,-38.536
1445.2,-38.503
1445.3,-38.483
1445.4,-38.513
1445.5,-38.553
1445.6,-38.61
1445.7,-38.701
1445.8,-38.826
1445.9,-38.778
1446,-38.692
1446.1,-38.642
1446.2,-38.625
1446.3,-38.569
1446.4,-38.57
1446.5,-38.632
1446.6,-38.662
1446.7,-38.637
1446.8,-38.668
1446.9,-38.685
1447,-38.694
1447.1,-38.665
1447.2,-38.691
1447.3,-38.76
1447.4,-38.73
1447.5,-38.709
1447.6,-38.715
1447.7,-38.701
1447.8,-38.624
1447.9,-38.621
1448,-38.619
1448.1,-38.598
1448.2,-38.596
1448.3,-38.624
1448.4,-38.619
1448.5,-38.563
1448.6,-38.547
1448.7,-38.576
1448.8,-38.554
1448.9,-38.525
1449,-38.549
1449.1,-38.607
1449.2,-38.591
1449.3,-38.599
1449.4,-38.644
1449.5,-38.664
1449.6,-38.614
1449.7,-38.637
1449.8,-38.694
1449.9,-38.733
1450,-38.722
1450.1,-38.786
1450.2,-38.837
1450.3,-38.817
1450.4,-38.791
1450.5,-38.842
1450.6,-38.935
1450.7,-38.921
1450.8,-38.922
1450.9,-38.939
1451,-38.87
1451.1,-38.844
1451.2,-38.837
1451.3,-38.831
1451.4,-38.792
1451.5,-38.713
1451.6,-38.706
1451.7,-38.701
1451.8,-38.697
1451.9,-38.676
1452,-38.691
1452.1,-38.68
1452.2,-38.662
1452.3,-38.656
1452.4,-38.698
1452.5,-38.68
1452.6,-38.629
1452.7,-38.666
1452.8,-38.725
1452.9,-38.753
1453,-38.75
1453.1,-38.791
1453.2,-38.808
1453.3,-38.799
1453.4,-38.799
1453.5,-38.874
1453.6,-38.902
1453.7,-38.893
1453.8,-38.942
1453.9,-38.972
1454,-38.943
1454.1,-38.894
1454.2,-38.939
1454.3,-38.957
1454.4,-38.933
1454.5,-38.901
1454.6,-38.934
1454.7,-38.936
1454.8,-38.867
1454.9,-38.837
1455,-38.847
1455.1,-38.82
1455.2,-38.799
1455.3,-38.88
1455.4,-38.907
1455.5,-38.899
1455.6,-38.898
1455.7,-38.895
1455.8,-38.866
1455.9,-38.823
1456,-38.833
1456.1,-38.897
1456.2,-38.915
1456.3,-38.92
1456.4,-38.973
1456.5,-39.006
1456.6,-38.998
1456.7,-38.973
1456.8,-39.05
1456.9,-39.098
1457,-39.098
1457.1,-39.112
1457.2,-39.182
1457.3,-39.226
1457.4,-39.186
1457.5,-39.201
1457.6,-39.215
1457.7,-39.21
1457.8,-39.151
1457.9,-39.188
1458,-39.197
1458.1,-39.192
1458.2,-39.148
1458.3,-39.148
1458.4,-39.089
1458.5,-39.012
1458.6,-38.982
1458.7,-39.003
1458.8,-38.993
1458.9,-38.988
1459,-39.019
1459.1,-39.043
1459.2,-39.02
1459.3,-39.014
1459.4,-39.064
1459.5,-39.07
1459.6,-39.049
1459.7,-39.094
1459.8,-39.181
1459.9,-39.216
1460,-39.238
1460.1,-39.293
1460.2,-39.346
1460.3,-39.359
1460.4,-39.34
1460.5,-39.402
1460.6,-39.42
1460.7,-39.38
1460.8,-39.409
1460.9,-39.44
1461,-39.394
1461.1,-39.312
1461.2,-39.322
1461.3,-39.313
1461.4,-39.282
1461.5,-39.235
1461.6,-39.28
1461.7,-39.273
1461.8,-39.243
1461.9,-39.19
1462,-39.198
1462.1,-39.161
1462.2,-39.103
1462.3,-39.097
1462.4,-39.145
1462.5,-39.165
1462.6,-39.144
1462.7,-39.184
1462.8,-39.19
1462.9,-39.186
1463,-39.175
1463.1,-39.234
1463.2,-39.322
1463.3,-39.349
1463.4,-39.393
1463.5,-39.47
1463.6,-39.472
1463.7,-39.448
1463.8,-39.457
1463.9,-39.519
1464,-39.513
1464.1,-39.471
1464.2,-39.514
1464.3,-39.562
1464.4,-39.573
1464.5,-39.551
1464.6,-39.554
1464.7,-39.533
1464.8,-39.483
1464.9,-39.426
1465,-39.456
1465.1,-39.47
1465.2,-39.47
1465.3,-39.479
1465.4,-39.51
1465.5,-39.472
1465.6,-39.371
1465.7,-39.338
1465.8,-39.341
1465.9,-39.316
1466,-39.321
1466.1,-39.381
1466.2,-39.459
1466.3,-39.473
1466.4,-39.504
1466.5,-39.541
1466.6,-39.572
1466.7,-39.564
1466.8,-39.566
1466.9,-39.676
1467,-39.76
1467.1,-39.782
1467.2,-39.851
1467.3,-39.904
1467.4,-39.897
1467.5,-39.837
1467.6,-39.854
1467.7,-39.886
1467.8,-39.917
1467.9,-39.896
1468,-39.946
1468.1,-39.964
1468.2,-39.895
1468.3,-39.837
1468.4,-39.834
1468.5,-39.789
1468.6,-39.714
1468.7,-39.691
1468.8,-39.722
1468.9,-39.726
1469,-39.688
1469.1,-39.7
1469.2,-39.706
1469.3,-39.661
1469.4,-39.624
1469.5,-39.704
1469.6,-39.84
1469.7,-39.882
1469.8,-39.915
1469.9,-40.007
1470,-39.989
1470.1,-39.952
1470.2,-39.962
1470.3,-40.035
1470.4,-40.061
1470.5,-40.109
1470.6,-40.219
1470.7,-40.356
1470.8,-40.385
1470.9,-40.381
1471,-40.433
1471.1,-40.374
1471.2,-40.322
1471.3,-40.33
1471.4,-40.348
1471.5,-40.348
1471.6,-40.306
1471.7,-40.306
1471.8,-40.28
1471.9,-40.243
1472,-40.165
1472.1,-40.168
1472.2,-40.182
1472.3,-40.217
1472.4,-40.187
1472.5,-40.221
1472.6,-40.231
1472.7,-40.133
1472.8,-40.109
1472.9,-40.131
1473,-40.135
1473.1,-40.138
1473.2,-40.187
1473.3,-40.273
1473.4,-40.33
1473.5,-40.355
1473.6,-40.397
1473.7,-40.486
1473.8,-40.512
1473.9,-40.545
1474,-40.597
1474.1,-40.66
1474.2,-40.664
1474.3,-40.692
1474.4,-40.733
1474.5,-40.77
1474.6,-40.733
1474.7,-40.716
1474.8,-40.717
1474.9,-40.7
1475,-40.689
1475.1,-40.67
1475.2,-40.704
1475.3,-40.694
1475.4,-40.659
1475.5,-40.641
1475.6,-40.65
1475.7,-40.616
1475.8,-40.593
1475.9,-40.625
1476,-40.67
1476.1,-40.64
1476.2,-40.614
1476.3,-40.627
1476.4,-40.624
1476.5,-40.608
1476.6,-40.613
1476.7,-40.678
1476.8,-40.745
1476.9,-40.783
1477,-40.865
1477.1,-40.958
1477.2,-41.003
1477.3,-41.033
1477.4,-41.068
1477.5,-41.147
1477.6,-41.184
1477.7,-41.225
1477.8,-41.341
1477.9,-41.402
1478,-41.402
1478.1,-41.397
1478.2,-41.363
1478.3,-41.356
1478.4,-41.319
1478.5,-41.286
1478.6,-41.294
1478.7,-41.299
1478.8,-41.259
1478.9,-41.227
1479,-41.243
1479.1,-41.243
1479.2,-41.204
1479.3,-41.186
1479.4,-41.223
1479.5,-41.225
1479.6,-41.198
1479.7,-41.23
1479.8,-41.266
1479.9,-41.252
1480,-41.238
1480.1,-41.268
1480.2,-41.342
1480.3,-41.404
1480.4,-41.452
1480.5,-41.539
1480.6,-41.641
1480.7,-41.686
1480.8,-41.729
1480.9,-41.812
1481,-41.881
1481.1,-41.917
1481.2,-41.959
1481.3,-42.062
1481.4,-42.118
1481.5,-42.151
1481.6,-42.173
1481.7,-42.213
1481.8,-42.191
1481.9,-42.137
1482,-42.103
1482.1,-42.056
1482.2,-41.994
1482.3,-41.968
1482.4,-41.949
1482.5,-41.952
1482.6,-41.931
1482.7,-41.896
1482.8,-41.908
1482.9,-41.907
1483,-41.893
1483.1,-41.886
1483.2,-41.916
1483.3,-41.956
1483.4,-41.978
1483.5,-42.023
1483.6,-42.109
1483.7,-42.151
1483.8,-42.194
1483.9,-42.245
1484,-42.333
1484.1,-42.398
1484.2,-42.438
1484.3,-42.532
1484.4,-42.645
1484.5,-42.693
1484.6,-42.747
1484.7,-42.832
1484.8,-42.925
1484.9,-42.941
1485,-42.946
1485.1,-42.979
1485.2,-42.983
1485.3,-42.957
1485.4,-42.916
1485.5,-42.913
1485.6,-42.892
1485.7,-42.853
1485.8,-42.799
1485.9,-42.783
1486,-42.738
1486.1,-42.685
1486.2,-42.671
1486.3,-42.684
1486.4,-42.686
1486.5,-42.661
1486.6,-42.678
1486.7,-42.714
1486.8,-42.73
1486.9,-42.75
1487,-42.816
1487.1,-42.881
1487.2,-42.94
1487.3,-42.986
1487.4,-43.096
1487.5,-43.184
1487.6,-43.247
1487.7,-43.325
1487.8,-43.442
1487.9,-43.552
1488,-43.65
1488.1,-43.756
1488.2,-43.848
1488.3,-43.912
1488.4,-43.877
1488.5,-43.865
1488.6,-43.816
1488.7,-43.779
1488.8,-43.715
1488.9,-43.684
1489,-43.68
1489.1,-43.652
1489.2,-43.593
1489.3,-43.526
1489.4,-43.495
1489.5,-43.452
1489.6,-43.409
1489.7,-43.408
1489.8,-43.441
1489.9,-43.43
1490,-43.409
1490.1,-43.441
1490.2,-43.496
1490.3,-43.555
1490.4,-43.617
1490.5,-43.701
1490.6,-43.787
1490.7,-43.839
1490.8,-43.952
1490.9,-44.058
1491,-44.187
1491.1,-44.238
1491.2,-44.318
1491.3,-44.41
1491.4,-44.488
1491.5,-44.53
1491.6,-44.603
1491.7,-44.712
1491.8,-44.769
1491.9,-44.788
1492,-44.811
1492.1,-44.806
1492.2,-44.82
1492.3,-44.775
1492.4,-44.738
1492.5,-44.731
1492.6,-44.719
1492.7,-44.665
1492.8,-44.656
1492.9,-44.677
1493,-44.689
1493.1,-44.645
1493.2,-44.631
1493.3,-44.65
1493.4,-44.635
1493.5,-44.584
1493.6,-44.624
1493.7,-44.698
1493.8,-44.733
1493.9,-44.797
1494,-44.912
1494.1,-45.027
1494.2,-45.134
1494.3,-45.249
1494.4,-45.41
1494.5,-45.561
1494.6,-45.685
1494.7,-45.786
1494.8,-45.898
1494.9,-45.98
1495,-46.027
1495.1,-46.097
1495.2,-46.12
1495.3,-46.172
1495.4,-46.189
1495.5,-46.184
1495.6,-46.215
1495.7,-46.206
1495.8,-46.187
1495.9,-46.117
1496,-46.066
1496.1,-46.025
1496.2,-45.951
1496.3,-45.929
1496.4,-45.889
1496.5,-45.883
1496.6,-45.848
1496.7,-45.811
1496.8,-45.856
1496.9,-45.886
1497,-45.944
1497.1,-46.036
1497.2,-46.141
1497.3,-46.216
1497.4,-46.333
1497.5,-46.465
1497.6,-46.631
1497.7,-46.792
1497.8,-46.93
1497.9,-47.08
1498,-47.227
1498.1,-47.346
1498.2,-47.457
1498.3,-47.637
1498.4,-47.744
1498.5,-47.783
1498.6,-47.855
1498.7,-47.845
1498.8,-47.831
1498.9,-47.752
1499,-47.739
1499.1,-47.697
1499.2,-47.61
1499.3,-47.572
1499.4,-47.484
1499.5,-47.418
1499.6,-47.356
1499.7,-47.264
1499.8,-47.192
1499.9,-47.158
1500,-47.171
1500.1,-47.147
1500.2,-47.158
1500.3,-47.239
1500.4,-47.291
1500.5,-47.422
1500.6,-47.549
1500.7,-47.69
1500.8,-47.806
1500.9,-47.962
1501,-48.164
1501.1,-48.398
1501.2,-48.658
1501.3,-48.83
1501.4,-49.045
1501.5,-49.209
1501.6,-49.35
1501.7,-49.408
1501.8,-49.463
1501.9,-49.526
1502,-49.49
1502.1,-49.439
1502.2,-49.445
1502.3,-49.368
1502.4,-49.301
1502.5,-49.088
1502.6,-48.969
1502.7,-48.851
1502.8,-48.694
1502.9,-48.496
1503,-48.419
1503.1,-48.316
1503.2,-48.209
1503.3,-48.169
1503.4,-48.12
1503.5,-48.106
1503.6,-48.112
1503.7,-48.085
1503.8,-48.182
1503.9,-48.321
1504,-48.435
1504.1,-48.61
1504.2,-48.825
1504.3,-49.049
1504.4,-49.209
1504.5,-49.446
1504.6,-49.677
1504.7,-49.945
1504.8,-50.203
1504.9,-50.413
1505,-50.563
1505.1,-50.72
1505.2,-50.842
1505.3,-50.865
1505.4,-50.837
1505.5,-50.775
1505.6,-50.581
1505.7,-50.362
1505.8,-50.023
1505.9,-49.776
1506,-49.5
1506.1,-49.297
1506.2,-48.984
1506.3,-48.736
1506.4,-48.501
1506.5,-48.337
1506.6,-48.16
1506.7,-48.059
1506.8,-47.97
1506.9,-47.901
1507,-47.894
1507.1,-47.882
1507.2,-47.921
1507.3,-48
1507.4,-48.102
1507.5,-48.288
1507.6,-48.436
1507.7,-48.672
1507.8,-48.92
1507.9,-49.193
1508,-49.489
1508.1,-49.84
1508.2,-50.14
1508.3,-50.337
1508.4,-50.531
1508.5,-50.769
1508.6,-50.85
1508.7,-50.921
1508.8,-50.869
1508.9,-50.802
1509,-50.577
1509.1,-50.353
1509.2,-50.027
1509.3,-49.652
1509.4,-49.255
1509.5,-48.928
1509.6,-48.633
1509.7,-48.367
1509.8,-48.057
1509.9,-47.822
1510,-47.581
1510.1,-47.408
1510.2,-47.252
1510.3,-47.157
1510.4,-47.034
1510.5,-46.982
1510.6,-46.972
1510.7,-47.034
1510.8,-47.09
1510.9,-47.209
1511,-47.386
1511.1,-47.569
1511.2,-47.75
1511.3,-48.007
1511.4,-48.253
1511.5,-48.571
1511.6,-48.934
1511.7,-49.266
1511.8,-49.616
1511.9,-49.896
1512,-50.195
1512.1,-50.343
1512.2,-50.544
1512.3,-50.614
1512.4,-50.609
1512.5,-50.534
1512.6,-50.298
1512.7,-50.02
1512.8,-49.682
1512.9,-49.372
1513,-49.054
1513.1,-48.722
1513.2,-48.394
1513.3,-48.102
1513.4,-47.804
1513.5,-47.532
1513.6,-47.297
1513.7,-47.118
1513.8,-46.981
1513.9,-46.861
1514,-46.777
1514.1,-46.744
1514.2,-46.724
1514.3,-46.767
1514.4,-46.843
1514.5,-46.962
1514.6,-47.114
1514.7,-47.329
1514.8,-47.508
1514.9,-47.791
1515,-48.101
1515.1,-48.472
1515.2,-48.83
1515.3,-49.194
1515.4,-49.658
1515.5,-49.972
1515.6,-50.371
1515.7,-50.759
1515.8,-51.111
1515.9,-51.329
1516,-51.369
1516.1,-51.362
1516.2,-51.124
1516.3,-50.769
1516.4,-50.485
1516.5,-50.062
1516.6,-49.733
1516.7,-49.329
1516.8,-48.903
1516.9,-48.518
1517,-48.16
1517.1,-47.813
1517.2,-47.5
1517.3,-47.263
1517.4,-47.053
1517.5,-46.892
1517.6,-46.793
1517.7,-46.723
1517.8,-46.768
1517.9,-46.829
1518,-46.894
1518.1,-47.039
1518.2,-47.233
1518.3,-47.454
1518.4,-47.702
1518.5,-48.049
1518.6,-48.422
1518.7,-48.779
1518.8,-49.132
1518.9,-49.468
1519,-49.773
1519.1,-50.092
1519.2,-50.312
1519.3,-50.528
1519.4,-50.632
1519.5,-50.646
1519.6,-50.532
1519.7,-50.299
1519.8,-50.13
1519.9,-49.743
1520,-49.408
1520.1,-49.047
1520.2,-48.659
1520.3,-48.298
1520.4,-47.936
1520.5,-47.672
1520.6,-47.479
1520.7,-47.298
1520.8,-47.153
1520.9,-47.078
1521,-47.006
1521.1,-46.965
1521.2,-46.936
1521.3,-47.03
1521.4,-47.201
1521.5,-47.401
1521.6,-47.618
1521.7,-47.916
1521.8,-48.293
1521.9,-48.576
1522,-48.991
1522.1,-49.417
1522.2,-49.92
1522.3,-50.298
1522.4,-50.683
1522.5,-50.947
1522.6,-51.08
1522.7,-51.107
1522.8,-51.026
1522.9,-50.681
1523,-50.216
1523.1,-49.546
1523.2,-48.817
1523.3,-48.116
1523.4,-47.442
1523.5,-46.801
1523.6,-46.177
1523.7,-45.638
1523.8,-45.118
1523.9,-44.677
1524,-44.243
1524.1,-43.897
1524.2,-43.62
1524.3,-43.363
1524.4,-43.177
1524.5,-43.007
1524.6,-42.906
1524.7,-42.823
1524.8,-42.804
1524.9,-42.844
1525,-42.921
1525.1,-42.998
1525.2,-43.111
1525.3,-43.267
1525.4,-43.455
1525.5,-43.669
1525.6,-43.912
1525.7,-44.156
1525.8,-44.368
1525.9,-44.529
1526,-44.654
1526.1,-44.671
1526.2,-44.655
1526.3,-44.566
1526.4,-44.407
1526.5,-44.135
1526.6,-43.809
1526.7,-43.45
1526.8,-43.033
1526.9,-42.554
1527,-42.138
1527.1,-41.75
1527.2,-41.364
1527.3,-40.963
1527.4,-40.614
1527.5,-40.335
1527.6,-40.034
1527.7,-39.766
1527.8,-39.54
1527.9,-39.388
1528,-39.22
1528.1,-39.075
1528.2,-38.99
1528.3,-38.985
1528.4,-38.938
1528.5,-38.933
1528.6,-38.997
1528.7,-39.121
1528.8,-39.225
1528.9,-39.377
1529,-39.577
1529.1,-39.829
1529.2,-40.013
1529.3,-40.249
1529.4,-40.539
1529.5,-40.827
1529.6,-41.117
1529.7,-41.481
1529.8,-41.783
1529.9,-42.03
1530,-42.229
1530.1,-42.361
1530.2,-42.396
1530.3,-42.357
1530.4,-42.212
1530.5,-42.056
1530.6,-41.81
1530.7,-41.517
1530.8,-41.293
1530.9,-41.021
1531,-40.73
1531.1,-40.476
1531.2,-40.274
1531.3,-40.065
1531.4,-39.85
1531.5,-39.696
1531.6,-39.612
1531.7,-39.478
1531.8,-39.409
1531.9,-39.422
1532,-39.435
1532.1,-39.436
1532.2,-39.5
1532.3,-39.637
1532.4,-39.801
1532.5,-40.006
1532.6,-40.266
1532.7,-40.638
1532.8,-41.048
1532.9,-41.486
1533,-42.037
1533.1,-42.562
1533.2,-43.084
1533.3,-43.614
1533.4,-44.163
1533.5,-44.632
1533.6,-44.977
1533.7,-45.262
1533.8,-45.272
1533.9,-45.103
1534,-44.901
1534.1,-44.604
1534.2,-44.161
1534.3,-43.779
1534.4,-43.487
1534.5,-43.193
1534.6,-42.969
1534.7,-42.922
1534.8,-42.872
1534.9,-42.767
1535,-42.802
1535.1,-42.999
1535.2,-43.223
1535.3,-43.534
1535.4,-43.997
1535.5,-44.498
1535.6,-44.934
1535.7,-45.539
1535.8,-46.264
1535.9,-46.752
1536,-47.273
1536.1,-47.847
1536.2,-47.866
1536.3,-47.67
1536.4,-47.602
1536.5,-47.09
1536.6,-46.524
1536.7,-46.182
1536.8,-45.827
1536.9,-45.351
1537,-45.06
1537.1,-44.904
1537.2,-44.694
1537.3,-44.55
1537.4,-44.608
1537.5,-44.609
1537.6,-44.513
1537.7,-44.484
1537.8,-44.542
1537.9,-44.512
1538,-44.44
1538.1,-44.405
1538.2,-44.318
1538.3,-44.074
1538.4,-43.934
1538.5,-43.899
1538.6,-43.794
1538.7,-43.763
1538.8,-43.82
1538.9,-43.751
1539,-43.7
1539.1,-43.727
1539.2,-43.693
1539.3,-43.631
1539.4,-43.681
1539.5,-43.677
1539.6,-43.436
1539.7,-43.3
1539.8,-43.116
1539.9,-42.88
1540,-42.771
1540.1,-42.804
1540.2,-42.753
1540.3,-42.658
1540.4,-42.57
1540.5,-42.257
1540.6,-41.898
1540.7,-41.701
1540.8,-41.384
1540.9,-40.965
1541,-40.633
1541.1,-40.257
1541.2,-39.592
1541.3,-38.885
1541.4,-38.329
1541.5,-37.726
1541.6,-37.079
1541.7,-36.576
1541.8,-36.15
1541.9,-35.689
1542,-35.343
1542.1,-35.033
1542.2,-34.696
1542.3,-34.366
1542.4,-34.155
1542.5,-33.824
1542.6,-33.493
1542.7,-33.3
1542.8,-33.102
1542.9,-32.882
1543,-32.873
1543.1,-32.819
1543.2,-32.778
1543.3,-32.851
1543.4,-32.994
1543.5,-33.161
1543.6,-33.351
1543.7,-33.566
1543.8,-33.691
1543.9,-33.807
1544,-34.053
1544.1,-34.329
1544.2,-34.593
1544.3,-35.053
1544.4,-35.491
1544.5,-35.751
1544.6,-36.103
1544.7,-36.577
1544.8,-36.923
1544.9,-37.231
1545,-37.673
1545.1,-37.96
1545.2,-38.012
1545.3,-38.107
1545.4,-38.191
1545.5,-38.035
1545.6,-37.988
1545.7,-38.103
1545.8,-38.125
1545.9,-38.222
1546,-38.403
1546.1,-38.459
1546.2,-38.491
1546.3,-38.582
1546.4,-38.672
1546.5,-38.731
1546.6,-38.878
1546.7,-39.038
1546.8,-39.182
1546.9,-39.517
1547,-39.985
1547.1,-40.423
1547.2,-41.049
1547.3,-41.82
1547.4,-42.461
1547.5,-43.146
1547.6,-44.097
1547.7,-44.874
1547.8,-45.635
1547.9,-46.458
1548,-46.422
1548.1,-45.95
1548.2,-45.602
1548.3,-45.054
1548.4,-44.556
1548.5,-44.446
1548.6,-44.458
1548.7,-44.365
1548.8,-44.577
1548.9,-44.874
1549,-44.76
1549.1,-44.744
1549.2,-44.683
1549.3,-44.345
1549.4,-44.147
1549.5,-44.237
1549.6,-44.014
1549.7,-44.008
1549.8,-44.261
1549.9,-44.151
1550,-43.872
1550.1,-43.641
1550.2,-43.144
1550.3,-42.678
1550.4,-42.354
1550.5,-42.061
1550.6,-41.798
1550.7,-41.668
1550.8,-41.456
1550.9,-41.277
1551,-41.185
1551.1,-41.098
1551.2,-40.976
1551.3,-41.004
1551.4,-40.914
1551.5,-40.711
1551.6,-40.673
1551.7,-40.556
1551.8,-40.43
1551.9,-40.536
1552,-40.685
1552.1,-40.678
1552.2,-40.829
1552.3,-41.066
1552.4,-41.156
1552.5,-41.237
1552.6,-41.392
1552.7,-41.383
1552.8,-41.556
1552.9,-41.786
1553,-41.952
1553.1,-42.321
1553.2,-42.69
1553.3,-42.857
1553.4,-43.192
1553.5,-43.577
1553.6,-43.808
1553.7,-44.079
1553.8,-44.276
1553.9,-44.137
1554,-43.889
1554.1,-43.485
1554.2,-42.917
1554.3,-42.55
1554.4,-42.269
1554.5,-41.905
1554.6,-41.742
1554.7,-41.697
1554.8,-41.458
1554.9,-41.351
1555,-41.336
1555.1,-41.06
1555.2,-40.952
1555.3,-40.951
1555.4,-40.793
1555.5,-40.7
1555.6,-40.771
1555.7,-40.652
1555.8,-40.557
1555.9,-40.616
1556,-40.614
1556.1,-40.756
1556.2,-41.107
1556.3,-41.421
1556.4,-41.812
1556.5,-42.275
1556.6,-42.621
1556.7,-43.023
1556.8,-43.437
1556.9,-43.702
1557,-44.041
1557.1,-44.357
1557.2,-44.535
1557.3,-44.826
1557.4,-44.933
1557.5,-44.834
1557.6,-44.872
1557.7,-44.764
1557.8,-44.58
1557.9,-44.626
1558,-44.555
1558.1,-44.327
1558.2,-44.291
1558.3,-44.122
1558.4,-43.853
1558.5,-43.789
1558.6,-43.422
1558.7,-43.003
1558.8,-42.826
1558.9,-42.227
1559,-41.692
1559.1,-41.499
1559.2,-41.128
1559.3,-40.748
1559.4,-40.644
1559.5,-40.388
1559.6,-40.144
1559.7,-40.199
1559.8,-40.194
1559.9,-40.174
1560,-40.393
1560.1,-40.441
1560.2,-40.477
1560.3,-40.771
1560.4,-40.994
1560.5,-41.22
1560.6,-41.546
1560.7,-41.633
1560.8,-41.742
1560.9,-41.823
1561,-41.753
1561.1,-41.76
1561.2,-41.672
1561.3,-41.433
1561.4,-41.442
1561.5,-41.25
1561.6,-40.998
1561.7,-40.838
1561.8,-40.462
1561.9,-40.054
1562,-39.875
1562.1,-39.571
1562.2,-39.272
1562.3,-39.277
1562.4,-39.206
1562.5,-39.23
1562.6,-39.467
1562.7,-39.524
1562.8,-39.602
1562.9,-39.73
1563,-39.723
1563.1,-39.831
1563.2,-39.91
1563.3,-39.898
1563.4,-40.038
1563.5,-39.997
1563.6,-39.97
1563.7,-40.13
1563.8,-40.15
1563.9,-40.301
1564,-40.627
1564.1,-40.664
1564.2,-40.799
1564.3,-40.992
1564.4,-41.001
1564.5,-41.2
1564.6,-41.416
1564.7,-41.46
1564.8,-41.644
1564.9,-41.774
1565,-41.821
1565.1,-42.022
1565.2,-42.192
1565.3,-42.409
1565.4,-42.815
1565.5,-42.976
1565.6,-43.24
1565.7,-43.265
1565.8,-43.207
1565.9,-43.564
1566,-43.613
1566.1,-43.717
1566.2,-44.185
1566.3,-44.397
1566.4,-44.767
1566.5,-45.604
1566.6,-46.283
1566.7,-47.162
1566.8,-48.259
1566.9,-48.856
1567,-49.468
1567.1,-49.827
1567.2,-49.697
1567.3,-49.465
1567.4,-48.908
1567.5,-48.239
1567.6,-47.552
1567.7,-46.917
1567.8,-46.326
1567.9,-45.711
1568,-45.262
1568.1,-44.802
1568.2,-44.383
1568.3,-44.182
1568.4,-43.947
1568.5,-43.767
1568.6,-43.803
1568.7,-43.858
1568.8,-44.015
1568.9,-44.325
1569,-44.551
1569.1,-44.898
1569.2,-45.348
1569.3,-45.756
1569.4,-46.289
1569.5,-46.738
1569.6,-47.19
1569.7,-47.687
1569.8,-47.932
1569.9,-48.349
1570,-48.506
1570.1,-48.398
1570.2,-48.395
1570.3,-47.856
1570.4,-47.215
1570.5,-46.427
1570.6,-45.552
1570.7,-44.879
1570.8,-44.025
1570.9,-43.282
1571,-42.704
1571.1,-42.017
1571.2,-41.602
1571.3,-41.142
1571.4,-40.561
1571.5,-40.251
1571.6,-39.94
1571.7,-39.619
1571.8,-39.482
1571.9,-39.312
1572,-39.096
1572.1,-38.982
1572.2,-38.784
1572.3,-38.736
1572.4,-38.741
1572.5,-38.728
1572.6,-38.85
1572.7,-39.041
1572.8,-39.254
1572.9,-39.589
1573,-39.945
1573.1,-40.443
1573.2,-41.008
1573.3,-41.525
1573.4,-42.107
1573.5,-42.694
1573.6,-43.312
1573.7,-43.938
1573.8,-44.512
1573.9,-45.152
1574,-45.701
1574.1,-46.054
1574.2,-46.455
1574.3,-46.507
1574.4,-46.636
1574.5,-46.438
1574.6,-46.115
1574.7,-45.841
1574.8,-45.231
1574.9,-44.727
1575,-44.167
1575.1,-43.448
1575.2,-43.015
1575.3,-42.418
1575.4,-41.855
1575.5,-41.452
1575.6,-40.941
1575.7,-40.54
1575.8,-40.212
1575.9,-39.849
1576,-39.617
1576.1,-39.355
1576.2,-39.174
1576.3,-39.02
1576.4,-38.833
1576.5,-38.733
1576.6,-38.666
1576.7,-38.64
1576.8,-38.695
1576.9,-38.78
1577,-38.938
1577.1,-39.155
1577.2,-39.356
1577.3,-39.647
1577.4,-39.924
1577.5,-40.232
1577.6,-40.594
1577.7,-40.945
1577.8,-41.392
1577.9,-41.826
1578,-42.227
1578.1,-42.704
1578.2,-43.181
1578.3,-43.659
1578.4,-44.226
1578.5,-44.635
1578.6,-45.167
1578.7,-45.603
1578.8,-45.915
1578.9,-46.263
1579,-46.437
1579.1,-46.695
1579.2,-46.816
1579.3,-46.879
1579.4,-47.081
1579.5,-47.036
1579.6,-47.168
1579.7,-47.098
1579.8,-46.861
1579.9,-46.869
1580,-46.612
1580.1,-46.445
1580.2,-46.186
1580.3,-45.701
1580.4,-45.307
1580.5,-44.687
1580.6,-44.139
1580.7,-43.738
1580.8,-43.21
1580.9,-42.866
1581,-42.554
1581.1,-42.341
1581.2,-42.235
1581.3,-42.133
1581.4,-42.141
1581.5,-42.176
1581.6,-42.228
1581.7,-42.356
1581.8,-42.571
1581.9,-42.749
1582,-43.087
1582.1,-43.36
1582.2,-43.753
1582.3,-44.25
1582.4,-44.69
1582.5,-45.276
1582.6,-45.839
1582.7,-46.449
1582.8,-47.209
1582.9,-47.716
1583,-48.565
1583.1,-49.685
1583.2,-50.903
1583.3,-52.542
1583.4,-53.955
1583.5,-55.848
1583.6,-57.943
1583.7,-57.416
1583.8,-56.744
1583.9,-54.761
1584,-52.381
1584.1,-50.695
1584.2,-49.212
1584.3,-48.038
1584.4,-46.992
1584.5,-45.982
1584.6,-45.217
1584.7,-44.507
1584.8,-43.909
1584.9,-43.405
1585,-42.963
1585.1,-42.656
1585.2,-42.43
1585.3,-42.255
1585.4,-42.176
1585.5,-42.137
1585.6,-42.186
1585.7,-42.273
1585.8,-42.452
1585.9,-42.704
1586,-42.982
1586.1,-43.346
1586.2,-43.773
1586.3,-44.193
1586.4,-44.665
1586.5,-45.114
1586.6,-45.542
1586.7,-45.97
1586.8,-46.346
1586.9,-46.629
1587,-46.787
1587.1,-46.789
1587.2,-46.623
1587.3,-46.428
1587.4,-46.062
1587.5,-45.605
1587.6,-45.134
1587.7,-44.511
1587.8,-43.94
1587.9,-43.383
1588,-42.861
1588.1,-42.415
1588.2,-42.051
1588.3,-41.718
1588.4,-41.433
1588.5,-41.158
1588.6,-40.868
1588.7,-40.632
1588.8,-40.483
1588.9,-40.329
1589,-40.21
1589.1,-40.103
1589.2,-40.055
1589.3,-40.028
1589.4,-40.029
1589.5,-40.064
1589.6,-40.093
1589.7,-40.188
1589.8,-40.315
1589.9,-40.422
1590,-40.565
1590.1,-40.702
1590.2,-40.848
1590.3,-41.022
1590.4,-41.255
1590.5,-41.462
1590.6,-41.662
1590.7,-41.867
1590.8,-41.976
1590.9,-42.084
1591,-42.181
1591.1,-42.207
1591.2,-42.284
1591.3,-42.335
1591.4,-42.336
1591.5,-42.319
1591.6,-42.241
1591.7,-42.118
1591.8,-42.005
1591.9,-41.87
1592,-41.712
1592.1,-41.613
1592.2,-41.444
1592.3,-41.318
1592.4,-41.152
1592.5,-40.988
1592.6,-40.85
1592.7,-40.728
1592.8,-40.622
1592.9,-40.549
1593,-40.422
1593.1,-40.322
1593.2,-40.207
1593.3,-40.149
1593.4,-40.099
1593.5,-40.113
1593.6,-40.12
1593.7,-40.192
1593.8,-40.22
1593.9,-40.261
1594,-40.351
1594.1,-40.421
1594.2,-40.564
1594.3,-40.717
1594.4,-40.907
1594.5,-41.125
1594.6,-41.371
1594.7,-41.581
1594.8,-41.867
1594.9,-42.137
1595,-42.459
1595.1,-42.792
1595.2,-43.106
1595.3,-43.434
1595.4,-43.74
1595.5,-44.004
1595.6,-44.237
1595.7,-44.447
1595.8,-44.639
1595.9,-44.792
1596,-44.777
1596.1,-44.656
1596.2,-44.469
1596.3,-44.193
1596.4,-43.903
1596.5,-43.566
1596.6,-43.284
1596.7,-42.947
1596.8,-42.621
1596.9,-42.303
1597,-41.958
1597.1,-41.665
1597.2,-41.371
1597.3,-41.103
1597.4,-40.899
1597.5,-40.711
1597.6,-40.526
1597.7,-40.402
1597.8,-40.251
1597.9,-40.176
1598,-40.143
1598.1,-40.115
1598.2,-40.135
1598.3,-40.179
1598.4,-40.21
1598.5,-40.29
1598.6,-40.355
1598.7,-40.49
1598.8,-40.652
1598.9,-40.884
1599,-41.1
1599.1,-41.369
1599.2,-41.58
1599.3,-41.83
1599.4,-42.084
1599.5,-42.356
1599.6,-42.674
1599.7,-42.953
1599.8,-43.283
1599.9,-43.557
1600,-43.791
1600.1,-43.988
1600.2,-44.193
1600.3,-44.292
1600.4,-44.363
1600.5,-44.348
1600.6,-44.263
1600.7,-44.061
1600.8,-43.838
1600.9,-43.536
1601,-43.261
1601.1,-43.038
1601.2,-42.759
1601.3,-42.51
1601.4,-42.267
1601.5,-41.994
1601.6,-41.717
1601.7,-41.429
1601.8,-41.211
1601.9,-41.023
1602,-40.878
1602.1,-40.73
1602.2,-40.619
1602.3,-40.488
1602.4,-40.396
1602.5,-40.364
1602.6,-40.306
1602.7,-40.326
1602.8,-40.345
1602.9,-40.38
1603,-40.466
1603.1,-40.527
1603.2,-40.652
1603.3,-40.809
1603.4,-41.001
1603.5,-41.21
1603.6,-41.414
1603.7,-41.613
1603.8,-41.81
1603.9,-42.023
1604,-42.251
1604.1,-42.496
1604.2,-42.773
1604.3,-43.016
1604.4,-43.255
1604.5,-43.475
1604.6,-43.59
1604.7,-43.675
1604.8,-43.737
1604.9,-43.747
1605,-43.716
1605.1,-43.64
1605.2,-43.531
1605.3,-43.37
1605.4,-43.148
1605.5,-42.959
1605.6,-42.724
1605.7,-42.547
1605.8,-42.308
1605.9,-42.061
1606,-41.808
1606.1,-41.601
1606.2,-41.332
1606.3,-41.109
1606.4,-40.92
1606.5,-40.77
1606.6,-40.676
1606.7,-40.578
1606.8,-40.476
1606.9,-40.39
1607,-40.321
1607.1,-40.24
1607.2,-40.201
1607.3,-40.222
1607.4,-40.237
1607.5,-40.31
1607.6,-40.361
1607.7,-40.444
1607.8,-40.543
1607.9,-40.672
1608,-40.838
1608.1,-40.985
1608.2,-41.139
1608.3,-41.299
1608.4,-41.444
1608.5,-41.621
1608.6,-41.772
1608.7,-41.97
1608.8,-42.195
1608.9,-42.387
1609,-42.575
1609.1,-42.671
1609.2,-42.698
1609.3,-42.691
1609.4,-42.673
1609.5,-42.65
1609.6,-42.6
1609.7,-42.595
1609.8,-42.504
1609.9,-42.371
1610,-42.25
1610.1,-42.077
1610.2,-41.913
1610.3,-41.747
1610.4,-41.546
1610.5,-41.34
1610.6,-41.178
1610.7,-40.965
1610.8,-40.785
1610.9,-40.672
1611,-40.543
1611.1,-40.46
1611.2,-40.416
1611.3,-40.325
1611.4,-40.264
1611.5,-40.191
1611.6,-40.114
1611.7,-40.075
1611.8,-40.099
1611.9,-40.112
1612,-40.185
1612.1,-40.275
1612.2,-40.396
1612.3,-40.461
1612.4,-40.564
1612.5,-40.658
1612.6,-40.738
1612.7,-40.879
1612.8,-40.99
1612.9,-41.149
1613,-41.297
1613.1,-41.478
1613.2,-41.644
1613.3,-41.812
1613.4,-41.969
1613.5,-42.109
1613.6,-42.175
1613.7,-42.245
1613.8,-42.316
1613.9,-42.306
1614,-42.273
1614.1,-42.28
1614.2,-42.291
1614.3,-42.29
1614.4,-42.265
1614.5,-42.149
1614.6,-42.025
1614.7,-41.883
1614.8,-41.723
1614.9,-41.593
1615,-41.443
1615.1,-41.342
1615.2,-41.231
1615.3,-41.118
1615.4,-41.014
1615.5,-40.944
1615.6,-40.844
1615.7,-40.741
1615.8,-40.694
1615.9,-40.598
1616,-40.552
1616.1,-40.533
1616.2,-40.47
1616.3,-40.489
1616.4,-40.502
1616.5,-40.546
1616.6,-40.631
1616.7,-40.698
1616.8,-40.735
1616.9,-40.817
1617,-40.85
1617.1,-40.896
1617.2,-41.009
1617.3,-41.106
1617.4,-41.274
1617.5,-41.403
1617.6,-41.582
1617.7,-41.693
1617.8,-41.836
1617.9,-41.908
1618,-41.999
1618.1,-42.072
1618.2,-42.166
1618.3,-42.234
1618.4,-42.309
1618.5,-42.337
1618.6,-42.398
1618.7,-42.401
1618.8,-42.399
1618.9,-42.409
1619,-42.377
1619.1,-42.323
1619.2,-42.195
1619.3,-42.079
1619.4,-41.931
1619.5,-41.838
1619.6,-41.731
1619.7,-41.687
1619.8,-41.595
1619.9,-41.55
1620,-41.455
1620.1,-41.355
1620.2,-41.28
1620.3,-41.142
1620.4,-41.069
1620.5,-41.024
1620.6,-40.989
1620.7,-40.932
1620.8,-40.907
1620.9,-40.905
1621,-40.944
1621.1,-40.932
1621.2,-40.963
1621.3,-40.981
1621.4,-40.991
1621.5,-41.03
1621.6,-41.064
1621.7,-41.092
1621.8,-41.166
1621.9,-41.258
1622,-41.349
1622.1,-41.466
1622.2,-41.596
1622.3,-41.669
1622.4,-41.751
1622.5,-41.79
1622.6,-41.812
1622.7,-41.875
1622.8,-41.921
1622.9,-42.002
1623,-42.106
1623.1,-42.152
1623.2,-42.205
1623.3,-42.264
1623.4,-42.238
1623.5,-42.224
1623.6,-42.218
1623.7,-42.172
1623.8,-42.108
1623.9,-42.08
1624,-41.974
1624.1,-41.939
1624.2,-41.88
1624.3,-41.84
1624.4,-41.787
1624.5,-41.765
1624.6,-41.693
1624.7,-41.597
1624.8,-41.522
1624.9,-41.437
1625,-41.347
1625.1,-41.331
1625.2,-41.298
1625.3,-41.291
1625.4,-41.309
1625.5,-41.265
1625.6,-41.265
1625.7,-41.227
1625.8,-41.178
1625.9,-41.152
1626,-41.17
1626.1,-41.154
1626.2,-41.2
1626.3,-41.221
1626.4,-41.227
1626.5,-41.274
1626.6,-41.364
1626.7,-41.409
1626.8,-41.47
1626.9,-41.499
1627,-41.529
1627.1,-41.575
1627.2,-41.604
1627.3,-41.656
1627.4,-41.692
1627.5,-41.754
1627.6,-41.86
1627.7,-41.91
1627.8,-41.99
1627.9,-42.007
1628,-41.992
1628.1,-41.954
1628.2,-41.932
1628.3,-41.936
1628.4,-41.956
1628.5,-41.934
1628.6,-41.946
1628.7,-41.929
1628.8,-41.895
1628.9,-41.872
1629,-41.8
1629.1,-41.744
1629.2,-41.683
1629.3,-41.655
1629.4,-41.561
1629.5,-41.486
1629.6,-41.445
1629.7,-41.376
1629.8,-41.374
1629.9,-41.372
1630,-41.334
1630.1,-41.344
1630.2,-41.304
1630.3,-41.256
1630.4,-41.243
1630.5,-41.162
1630.6,-41.176
1630.7,-41.188
1630.8,-41.174
1630.9,-41.221
1631,-41.226
1631.1,-41.261
1631.2,-41.271
1631.3,-41.271
1631.4,-41.289
1631.5,-41.283
1631.6,-41.335
1631.7,-41.348
1631.8,-41.408
1631.9,-41.417
1632,-41.481
1632.1,-41.515
1632.2,-41.536
1632.3,-41.603
1632.4,-41.599
1632.5,-41.613
1632.6,-41.627
1632.7,-41.646
1632.8,-41.603
1632.9,-41.611
1633,-41.649
1633.1,-41.697
1633.2,-41.711
1633.3,-41.706
1633.4,-41.721
1633.5,-41.685
1633.6,-41.667
1633.7,-41.58
1633.8,-41.529
1633.9,-41.51
1634,-41.493
1634.1,-41.49
1634.2,-41.484
1634.3,-41.449
1634.4,-41.443
1634.5,-41.388
1634.6,-41.347
1634.7,-41.326
1634.8,-41.268
1634.9,-41.251
1635,-41.224
1635.1,-41.155
1635.2,-41.129
1635.3,-41.116
1635.4,-41.132
1635.5,-41.14
1635.6,-41.149
1635.7,-41.145
1635.8,-41.158
1635.9,-41.139
1636,-41.124
1636.1,-41.102
1636.2,-41.108
1636.3,-41.139
1636.4,-41.199
1636.5,-41.217
1636.6,-41.248
1636.7,-41.307
1636.8,-41.308
1636.9,-41.358
1637,-41.322
1637.1,-41.36
1637.2,-41.365
1637.3,-41.407
1637.4,-41.423
1637.5,-41.434
1637.6,-41.456
1637.7,-41.513
1637.8,-41.526
1637.9,-41.553
1638,-41.575
1638.1,-41.54
1638.2,-41.514
1638.3,-41.489
1638.4,-41.47
1638.5,-41.461
1638.6,-41.441
1638.7,-41.434
1638.8,-41.45
1638.9,-41.41
1639,-41.4
1639.1,-41.385
1639.2,-41.357
1639.3,-41.281
1639.4,-41.226
1639.5,-41.206
1639.6,-41.174
1639.7,-41.179
1639.8,-41.172
1639.9,-41.136
1640,-41.135
1640.1,-41.138
1640.2,-41.069
1640.3,-41.063
1640.4,-41.035
1640.5,-41.061
1640.6,-41.053
1640.7,-41.016
1640.8,-41.005
1640.9,-41.05
1641,-41.064
1641.1,-41.084
1641.2,-41.118
1641.3,-41.115
1641.4,-41.131
1641.5,-41.155
1641.6,-41.125
1641.7,-41.093
1641.8,-41.144
1641.9,-41.167
1642,-41.187
1642.1,-41.227
1642.2,-41.213
1642.3,-41.232
1642.4,-41.262
1642.5,-41.236
1642.6,-41.217
1642.7,-41.224
1642.8,-41.211
1642.9,-41.199
1643,-41.228
1643.1,-41.23
1643.2,-41.239
1643.3,-41.246
1643.4,-41.253
1643.5,-41.24
1643.6,-41.189
1643.7,-41.16
1643.8,-41.174
1643.9,-41.126
1644,-41.082
1644.1,-41.073
1644.2,-41.051
1644.3,-41.055
1644.4,-41.006
1644.5,-40.958
1644.6,-40.964
1644.7,-40.92
1644.8,-40.88
1644.9,-40.854
1645,-40.842
1645.1,-40.807
1645.2,-40.811
1645.3,-40.825
1645.4,-40.83
1645.5,-40.822
1645.6,-40.825
1645.7,-40.832
1645.8,-40.82
1645.9,-40.813
1646,-40.839
1646.1,-40.85
1646.2,-40.833
1646.3,-40.841
1646.4,-40.831
1646.5,-40.898
1646.6,-40.904
1646.7,-40.905
1646.8,-40.933
1646.9,-40.904
1647,-40.914
1647.1,-40.958
1647.2,-40.927
1647.3,-40.926
1647.4,-40.929
1647.5,-40.954
1647.6,-40.961
1647.7,-41.01
1647.8,-40.987
1647.9,-40.971
1648,-40.992
1648.1,-40.98
1648.2,-40.938
1648.3,-40.892
1648.4,-40.885
1648.5,-40.875
1648.6,-40.868
1648.7,-40.845
1648.8,-40.84
1648.9,-40.822
1649,-40.827
1649.1,-40.826
1649.2,-40.842
1649.3,-40.803
1649.4,-40.793
1649.5,-40.804
1649.6,-40.75
1649.7,-40.7
1649.8,-40.683
1649.9,-40.739
1650,-40.728
1650.1,-40.729
1650.2,-40.731
1650.3,-40.72
1650.4,-40.711
1650.5,-40.687
1650.6,-40.698
1650.7,-40.658
1650.8,-40.704
1650.9,-40.682
1651,-40.66
1651.1,-40.666
1651.2,-40.645
1651.3,-40.674
1651.4,-40.709
1651.5,-40.725
1651.6,-40.69
1651.7,-40.679
1651.8,-40.704
1651.9,-40.701
1652,-40.668
1652.1,-40.661
1652.2,-40.67
1652.3,-40.722
1652.4,-40.747
1652.5,-40.737
1652.6,-40.712
1652.7,-40.721
1652.8,-40.721
1652.9,-40.727
1653,-40.68
1653.1,-40.639
1653.2,-40.678
1653.3,-40.656
1653.4,-40.651
1653.5,-40.661
1653.6,-40.627
1653.7,-40.629
1653.8,-40.637
1653.9,-40.583
1654,-40.549
1654.1,-40.528
1654.2,-40.541
1654.3,-40.487
1654.4,-40.464
1654.5,-40.448
1654.6,-40.428
1654.7,-40.452
1654.8,-40.47
1654.9,-40.454
1655,-40.429
1655.1,-40.434
1655.2,-40.452
1655.3,-40.392
1655.4,-40.351
1655.5,-40.355
1655.6,-40.397
1655.7,-40.396
1655.8,-40.402
1655.9,-40.406
1656,-40.44
1656.1,-40.437
1656.2,-40.429
1656.3,-40.419
1656.4,-40.372
1656.5,-40.358
1656.6,-40.385
1656.7,-40.434
1656.8,-40.405
1656.9,-40.408
1657,-40.451
1657.1,-40.47
1657.2,-40.476
1657.3,-40.485
1657.4,-40.462
1657.5,-40.45
1657.6,-40.445
1657.7,-40.445
1657.8,-40.401
1657.9,-40.377
1658,-40.434
1658.1,-40.485
1658.2,-40.484
1658.3,-40.465
1658.4,-40.453
1658.5,-40.464
1658.6,-40.446
1658.7,-40.407
1658.8,-40.354
1658.9,-40.355
1659,-40.36
1659.1,-40.358
1659.2,-40.361
1659.3,-40.354
1659.4,-40.34
1659.5,-40.383
1659.6,-40.399
1659.7,-40.35
1659.8,-40.315
1659.9,-40.314
1660,-40.295
1660.1,-40.293
1660.2,-40.259
1660.3,-40.231
1660.4,-40.292
1660.5,-40.326
1660.6,-40.33
1660.7,-40.339
1660.8,-40.293
1660.9,-40.296
1661,-40.323
1661.1,-40.276
1661.2,-40.25
1661.3,-40.258
1661.4,-40.315
1661.5,-40.322
1661.6,-40.343
1661.7,-40.363
1661.8,-40.364
1661.9,-40.4
1662,-40.396
1662.1,-40.389
1662.2,-40.332
1662.3,-40.329
1662.4,-40.365
1662.5,-40.367
1662.6,-40.345
1662.7,-40.347
1662.8,-40.429
1662.9,-40.463
1663,-40.433
1663.1,-40.409
1663.2,-40.375
1663.3,-40.386
1663.4,-40.356
1663.5,-40.311
1663.6,-40.29
1663.7,-40.265
1663.8,-40.307
1663.9,-40.365
1664,-40.343
1664.1,-40.344
1664.2,-40.322
1664.3,-40.344
1664.4,-40.317
1664.5,-40.249
1664.6,-40.251
1664.7,-40.223
1664.8,-40.245
1664.9,-40.26
1665,-40.274
1665.1,-40.256
1665.2,-40.278
1665.3,-40.31
1665.4,-40.318
1665.5,-40.276
1665.6,-40.244
1665.7,-40.23
1665.8,-40.237
1665.9,-40.229
1666,-40.207
1666.1,-40.237
1666.2,-40.286
1666.3,-40.328
1666.4,-40.345
1666.5,-40.347
1666.6,-40.328
1666.7,-40.353
1666.8,-40.345
1666.9,-40.316
1667,-40.302
1667.1,-40.287
1667.2,-40.338
1667.3,-40.407
1667.4,-40.398
1667.5,-40.393
1667.6,-40.419
1667.7,-40.431
1667.8,-40.433
1667.9,-40.405
1668,-40.355
1668.1,-40.329
1668.2,-40.34
1668.3,-40.36
1668.4,-40.323
1668.5,-40.3
1668.6,-40.343
1668.7,-40.385
1668.8,-40.395
1668.9,-40.345
1669,-40.31
1669.1,-40.282
1669.2,-40.274
1669.3,-40.27
1669.4,-40.215
1669.5,-40.191
1669.6,-40.248
1669.7,-40.278
1669.8,-40.297
1669.9,-40.32
1670,-40.29
1670.1,-40.294
1670.2,-40.328
1670.3,-40.277
1670.4,-40.238
1670.5,-40.231
1670.6,-40.237
1670.7,-40.261
1670.8,-40.26
1670.9,-40.266
1671,-40.269
1671.1,-40.281
1671.2,-40.306
1671.3,-40.303
1671.4,-40.286
1671.5,-40.263
1671.6,-40.28
1671.7,-40.306
1671.8,-40.294
1671.9,-40.265
1672,-40.288
1672.1,-40.353
1672.2,-40.373
1672.3,-40.364
1672.4,-40.351
1672.5,-40.369
1672.6,-40.369
1672.7,-40.36
1672.8,-40.331
1672.9,-40.325
1673,-40.307
1673.1,-40.342
1673.2,-40.372
1673.3,-40.378
1673.4,-40.349
1673.5,-40.357
1673.6,-40.391
1673.7,-40.35
1673.8,-40.334
1673.9,-40.279
1674,-40.279
1674.1,-40.319
1674.2,-40.289
1674.3,-40.272
1674.4,-40.278
1674.5,-40.278
1674.6,-40.322
1674.7,-40.303
1674.8,-40.301
1674.9,-40.25
1675,-40.23
1675.1,-40.241
1675.2,-40.208
1675.3,-40.201
1675.4,-40.184
1675.5,-40.239
1675.6,-40.259
1675.7,-40.252
1675.8,-40.267
1675.9,-40.243
1676,-40.267
1676.1,-40.287
1676.2,-40.266
1676.3,-40.219
1676.4,-40.226
1676.5,-40.253
1676.6,-40.274
1676.7,-40.262
1676.8,-40.263
1676.9,-40.279
1677,-40.313
1677.1,-40.341
1677.2,-40.341
1677.3,-40.312
1677.4,-40.315
1677.5,-40.342
1677.6,-40.38
1677.7,-40.331
1677.8,-40.294
1677.9,-40.32
1678,-40.377
1678.1,-40.387
1678.2,-40.384
1678.3,-40.364
1678.4,-40.376
1678.5,-40.365
1678.6,-40.363
1678.7,-40.312
1678.8,-40.289
1678.9,-40.275
1679,-40.303
1679.1,-40.338
1679.2,-40.305
1679.3,-40.278
1679.4,-40.315
1679.5,-40.312
1679.6,-40.316
1679.7,-40.304
1679.8,-40.288
1679.9,-40.281
1680,-40.315
1680.1,-40.353
1680.2,-40.312
1680.3,-40.313
1680.4,-40.336
1680.5,-40.395
1680.6,-40.407
1680.7,-40.377
1680.8,-40.357
1680.9,-40.38
1681,-40.396
1681.1,-40.396
1681.2,-40.372
1681.3,-40.332
1681.4,-40.365
1681.5,-40.426
1681.6,-40.446
1681.7,-40.421
1681.8,-40.43
1681.9,-40.425
1682,-40.486
1682.1,-40.467
1682.2,-40.424
1682.3,-40.41
1682.4,-40.452
1682.5,-40.505
1682.6,-40.513
1682.7,-40.516
1682.8,-40.492
1682.9,-40.529
1683,-40.556
1683.1,-40.535
1683.2,-40.534
1683.3,-40.498
1683.4,-40.52
1683.5,-40.551
1683.6,-40.545
1683.7,-40.497
1683.8,-40.492
1683.9,-40.509
1684,-40.569
1684.1,-40.521
1684.2,-40.502
1684.3,-40.503
1684.4,-40.542
1684.5,-40.514
1684.6,-40.476
1684.7,-40.441
1684.8,-40.456
1684.9,-40.488
1685,-40.516
1685.1,-40.524
1685.2,-40.488
1685.3,-40.494
1685.4,-40.538
1685.5,-40.542
1685.6,-40.54
1685.7,-40.509
1685.8,-40.504
1685.9,-40.579
1686,-40.587
1686.1,-40.552
1686.2,-40.554
1686.3,-40.556
1686.4,-40.603
1686.5,-40.622
1686.6,-40.611
1686.7,-40.607
1686.8,-40.594
1686.9,-40.647
1687,-40.67
1687.1,-40.625
1687.2,-40.613
1687.3,-40.659
1687.4,-40.714
1687.5,-40.723
1687.6,-40.707
1687.7,-40.697
1687.8,-40.718
1687.9,-40.744
1688,-40.771
1688.1,-40.727
1688.2,-40.688
1688.3,-40.719
1688.4,-40.759
1688.5,-40.764
1688.6,-40.758
1688.7,-40.713
1688.8,-40.722
1688.9,-40.77
1689,-40.786
1689.1,-40.74
1689.2,-40.713
1689.3,-40.741
1689.4,-40.77
1689.5,-40.782
1689.6,-40.749
1689.7,-40.745
1689.8,-40.762
1689.9,-40.813
1690,-40.829
1690.1,-40.817
1690.2,-40.792
1690.3,-40.796
1690.4,-40.828
1690.5,-40.822
1690.6,-40.793
1690.7,-40.795
1690.8,-40.838
1690.9,-40.873
1691,-40.911
1691.1,-40.874
1691.2,-40.869
1691.3,-40.913
1691.4,-40.954
1691.5,-40.962
1691.6,-40.952
1691.7,-40.928
1691.8,-40.965
1691.9,-41.012
1692,-41.028
1692.1,-41.02
1692.2,-41.003
1692.3,-41.034
1692.4,-41.107
1692.5,-41.089
1692.6,-41.067
1692.7,-41.063
1692.8,-41.072
1692.9,-41.09
1693,-41.098
1693.1,-41.068
1693.2,-41.032
1693.3,-41.053
1693.4,-41.123
1693.5,-41.154
1693.6,-41.118
1693.7,-41.109
1693.8,-41.125
1693.9,-41.16
1694,-41.164
1694.1,-41.121
1694.2,-41.116
1694.3,-41.109
1694.4,-41.158
1694.5,-41.179
1694.6,-41.129
1694.7,-41.125
1694.8,-41.152
1694.9,-41.177
1695,-41.201
1695.1,-41.181
1695.2,-41.144
1695.3,-41.152
1695.4,-41.203
1695.5,-41.208
1695.6,-41.18
1695.7,-41.162
1695.8,-41.194
1695.9,-41.254
1696,-41.283
1696.1,-41.249
1696.2,-41.251
1696.3,-41.24
1696.4,-41.279
1696.5,-41.314
1696.6,-41.272
1696.7,-41.275
1696.8,-41.296
1696.9,-41.368
1697,-41.385
1697.1,-41.385
1697.2,-41.359
1697.3,-41.398
1697.4,-41.429
1697.5,-41.448
1697.6,-41.426
1697.7,-41.401
1697.8,-41.415
1697.9,-41.483
1698,-41.474
1698.1,-41.444
1698.2,-41.44
1698.3,-41.456
1698.4,-41.508
1698.5,-41.524
1698.6,-41.475
1698.7,-41.451
1698.8,-41.455
1698.9,-41.507
1699,-41.491
1699.1,-41.465
1699.2,-41.45
1699.3,-41.432
1699.4,-41.508
1699.5,-41.541
1699.6,-41.549
1699.7,-41.528
1699.8,-41.537
1699.9,-41.567
1700,-41.581
1700.1,-41.55
1700.2,-41.514
1700.3,-41.546
1700.4,-41.57
1700.5,-41.62
1700.6,-41.617
1700.7,-41.587
1700.8,-41.606
1700.9,-41.668
1701,-41.694
1701.1,-41.686
1701.2,-41.653
1701.3,-41.646
1701.4,-41.683
1701.5,-41.697
1701.6,-41.671
1701.7,-41.688
1701.8,-41.719
1701.9,-41.785
1702,-41.858
1702.1,-41.856
1702.2,-41.83
1702.3,-41.82
1702.4,-41.844
1702.5,-41.864
1702.6,-41.833
1702.7,-41.799
1702.8,-41.829
1702.9,-41.86
1703,-41.905
1703.1,-41.902
1703.2,-41.887
1703.3,-41.915
1703.4,-41.959
1703.5,-42.013
1703.6,-41.984
1703.7,-41.926
1703.8,-41.917
1703.9,-41.942
1704,-41.989
1704.1,-41.979
1704.2,-41.947
1704.3,-41.966
1704.4,-41.998
1704.5,-42.04
1704.6,-42.045
1704.7,-41.977
1704.8,-41.963
1704.9,-41.995
1705,-42.008
1705.1,-41.995
1705.2,-41.972
1705.3,-41.957
1705.4,-41.993
1705.5,-42.077
1705.6,-42.078
1705.7,-42.064
1705.8,-42.088
1705.9,-42.101
1706,-42.117
1706.1,-42.105
1706.2,-42.067
1706.3,-42.046
1706.4,-42.079
1706.5,-42.152
1706.6,-42.176
1706.7,-42.137
1706.8,-42.153
1706.9,-42.188
1707,-42.243
1707.1,-42.246
1707.2,-42.206
1707.3,-42.198
1707.4,-42.183
1707.5,-42.213
1707.6,-42.201
1707.7,-42.172
1707.8,-42.183
1707.9,-42.214
1708,-42.261
1708.1,-42.306
1708.2,-42.301
1708.3,-42.249
1708.4,-42.25
1708.5,-42.267
1708.6,-42.27
1708.7,-42.252
1708.8,-42.215
1708.9,-42.222
1709,-42.283
1709.1,-42.308
1709.2,-42.301
1709.3,-42.3
1709.4,-42.321
1709.5,-42.36
1709.6,-42.392
1709.7,-42.35
1709.8,-42.297
1709.9,-42.308
1710,-42.323
1710.1,-42.324
1710.2,-42.338
1710.3,-42.325
1710.4,-42.345
1710.5,-42.387
1710.6,-42.448
1710.7,-42.448
1710.8,-42.407
1710.9,-42.361
1711,-42.369
1711.1,-42.376
1711.2,-42.38
1711.3,-42.354
1711.4,-42.343
1711.5,-42.393
1711.6,-42.446
1711.7,-42.5
1711.8,-42.501
1711.9,-42.467
1712,-42.473
1712.1,-42.518
1712.2,-42.511
1712.3,-42.475
1712.4,-42.446
1712.5,-42.44
1712.6,-42.478
1712.7,-42.519
1712.8,-42.542
1712.9,-42.529
1713,-42.573
1713.1,-42.609
1713.2,-42.667
1713.3,-42.665
1713.4,-42.602
1713.5,-42.578
1713.6,-42.585
1713.7,-42.579
1713.8,-42.579
1713.9,-42.542
1714,-42.56
1714.1,-42.616
1714.2,-42.655
1714.3,-42.691
1714.4,-42.674
1714.5,-42.648
1714.6,-42.673
1714.7,-42.682
1714.8,-42.694
1714.9,-42.667
1715,-42.598
1715.1,-42.629
1715.2,-42.684
1715.3,-42.696
1715.4,-42.682
1715.5,-42.679
1715.6,-42.729
1715.7,-42.735
1715.8,-42.755
1715.9,-42.734
1716,-42.653
1716.1,-42.657
1716.2,-42.681
1716.3,-42.689
1716.4,-42.708
1716.5,-42.693
1716.6,-42.707
1716.7,-42.768
1716.8,-42.85
1716.9,-42.835
1717,-42.808
1717.1,-42.808
1717.2,-42.816
1717.3,-42.837
1717.4,-42.839
1717.5,-42.794
1717.6,-42.79
1717.7,-42.831
1717.8,-42.878
1717.9,-42.94
1718,-42.908
1718.1,-42.887
1718.2,-42.931
1718.3,-42.944
1718.4,-42.949
1718.5,-42.935
1718.6,-42.89
1718.7,-42.898
1718.8,-42.919
1718.9,-42.936
1719,-42.917
1719.1,-42.894
1719.2,-42.928
1719.3,-42.972
1719.4,-43.015
1719.5,-43.011
1719.6,-42.959
1719.7,-42.941
1719.8,-42.953
1719.9,-42.953
1720,-42.936
1720.1,-42.921
1720.2,-42.907
1720.3,-42.971
1720.4,-43.032
1720.5,-43.03
1720.6,-43.015
1720.7,-42.989
1720.8,-43.035
1720.9,-43.045
1721,-43.052
1721.1,-43.024
1721.2,-42.986
1721.3,-42.983
1721.4,-43.017
1721.5,-43.042
1721.6,-43.029
1721.7,-43.029
1721.8,-43.097
1721.9,-43.132
1722,-43.176
1722.1,-43.168
1722.2,-43.114
1722.3,-43.09
1722.4,-43.097
1722.5,-43.122
1722.6,-43.117
1722.7,-43.09
1722.8,-43.09
1722.9,-43.134
1723,-43.187
1723.1,-43.204
1723.2,-43.171
1723.3,-43.173
1723.4,-43.191
1723.5,-43.198
1723.6,-43.201
1723.7,-43.17
1723.8,-43.157
1723.9,-43.173
1724,-43.206
1724.1,-43.248
1724.2,-43.251
1724.3,-43.227
1724.4,-43.259
1724.5,-43.275
1724.6,-43.299
1724.7,-43.295
1724.8,-43.229
1724.9,-43.233
1725,-43.229
1725.1,-43.232
1725.2,-43.22
1725.3,-43.212
1725.4,-43.226
1725.5,-43.258
1725.6,-43.29
1725.7,-43.314
1725.8,-43.268
1725.9,-43.239
1726,-43.23
1726.1,-43.235
1726.2,-43.238
1726.3,-43.231
1726.4,-43.194
1726.5,-43.223
1726.6,-43.297
1726.7,-43.302
1726.8,-43.295
1726.9,-43.287
1727,-43.316
1727.1,-43.338
1727.2,-43.371
1727.3,-43.349
1727.4,-43.296
1727.5,-43.313
1727.6,-43.311
1727.7,-43.339
1727.8,-43.324
1727.9,-43.301
1728,-43.325
1728.1,-43.364
1728.2,-43.432
1728.3,-43.407
1728.4,-43.38
1728.5,-43.325
1728.6,-43.346
1728.7,-43.335
1728.8,-43.34
1728.9,-43.306
1729,-43.289
1729.1,-43.316
1729.2,-43.354
1729.3,-43.389
1729.4,-43.382
1729.5,-43.358
1729.6,-43.39
1729.7,-43.389
1729.8,-43.417
1729.9,-43.384
1730,-43.339
1730.1,-43.352
1730.2,-43.356
1730.3,-43.38
1730.4,-43.383
1730.5,-43.349
1730.6,-43.363
1730.7,-43.392
1730.8,-43.423
1730.9,-43.449
1731,-43.416
1731.1,-43.395
1731.2,-43.403
1731.3,-43.391
1731.4,-43.375
1731.5,-43.364
1731.6,-43.334
1731.7,-43.359
1731.8,-43.402
1731.9,-43.42
1732,-43.425
1732.1,-43.392
1732.2,-43.402
1732.3,-43.411
1732.4,-43.397
1732.5,-43.391
1732.6,-43.388
1732.7,-43.378
1732.8,-43.395
1732.9,-43.417
1733,-43.399
1733.1,-43.39
1733.2,-43.41
1733.3,-43.448
1733.4,-43.485
1733.5,-43.503
1733.6,-43.471
1733.7,-43.426
1733.8,-43.419
1733.9,-43.415
1734,-43.399
1734.1,-43.403
1734.2,-43.403
1734.3,-43.437
1734.4,-43.464
1734.5,-43.495
1734.6,-43.479
1734.7,-43.452
1734.8,-43.471
1734.9,-43.468
1735,-43.462
1735.1,-43.458
1735.2,-43.429
1735.3,-43.401
1735.4,-43.43
1735.5,-43.452
1735.6,-43.47
1735.7,-43.469
1735.8,-43.493
1735.9,-43.522
1736,-43.516
1736.1,-43.527
1736.2,-43.519
1736.3,-43.464
1736.4,-43.478
1736.5,-43.484
1736.6,-43.482
1736.7,-43.493
1736.8,-43.465
1736.9,-43.496
1737,-43.529
1737.1,-43.541
1737.2,-43.559
1737.3,-43.557
1737.4,-43.517
1737.5,-43.533
1737.6,-43.519
1737.7,-43.52
1737.8,-43.505
1737.9,-43.483
1738,-43.52
1738.1,-43.527
1738.2,-43.572
1738.3,-43.583
1738.4,-43.559
1738.5,-43.571
1738.6,-43.582
1738.7,-43.604
1738.8,-43.619
1738.9,-43.581
1739,-43.545
1739.1,-43.545
1739.2,-43.528
1739.3,-43.547
1739.4,-43.539
1739.5,-43.547
1739.6,-43.583
1739.7,-43.644
1739.8,-43.674
1739.9,-43.67
1740,-43.63
1740.1,-43.62
1740.2,-43.602
1740.3,-43.582
1740.4,-43.597
1740.5,-43.573
1740.6,-43.587
1740.7,-43.613
1740.8,-43.613
1740.9,-43.645
1741,-43.626
1741.1,-43.62
1741.2,-43.631
1741.3,-43.623
1741.4,-43.602
1741.5,-43.59
1741.6,-43.549
1741.7,-43.543
1741.8,-43.571
1741.9,-43.558
1742,-43.583
1742.1,-43.594
1742.2,-43.611
1742.3,-43.634
1742.4,-43.632
1742.5,-43.645
1742.6,-43.62
1742.7,-43.609
1742.8,-43.625
1742.9,-43.607
1743,-43.59
1743.1,-43.608
1743.2,-43.586
1743.3,-43.618
1743.4,-43.662
1743.5,-43.661
1743.6,-43.697
1743.7,-43.669
1743.8,-43.659
1743.9,-43.676
1744,-43.645
1744.1,-43.636
1744.2,-43.614
1744.3,-43.623
1744.4,-43.658
1744.5,-43.678
1744.6,-43.679
1744.7,-43.68
1744.8,-43.689
1744.9,-43.715
1745,-43.745
1745.1,-43.734
1745.2,-43.73
1745.3,-43.686
1745.4,-43.679
1745.5,-43.682
1745.6,-43.651
1745.7,-43.649
1745.8,-43.654
1745.9,-43.684
1746,-43.732
1746.1,-43.751
1746.2,-43.764
1746.3,-43.743
1746.4,-43.72
1746.5,-43.731
1746.6,-43.719
1746.7,-43.724
1746.8,-43.723
1746.9,-43.713
1747,-43.733
1747.1,-43.748
1747.2,-43.738
1747.3,-43.744
1747.4,-43.749
1747.5,-43.769
1747.6,-43.795
1747.7,-43.794
1747.8,-43.791
1747.9,-43.749
1748,-43.723
1748.1,-43.733
1748.2,-43.724
1748.3,-43.708
1748.4,-43.728
1748.5,-43.747
1748.6,-43.759
1748.7,-43.783
1748.8,-43.781
1748.9,-43.795
1749,-43.771
1749.1,-43.755
1749.2,-43.775
1749.3,-43.743
1749.4,-43.727
1749.5,-43.745
1749.6,-43.726
1749.7,-43.766
1749.8,-43.8
1749.9,-43.809
1750,-43.791
1750.1,-43.781
1750.2,-43.772
1750.3,-43.762
1750.4,-43.729
1750.5,-43.746
1750.6,-43.75
1750.7,-43.736
1750.8,-43.755
1750.9,-43.748
1751,-43.717
1751.1,-43.745
1751.2,-43.747
1751.3,-43.784
1751.4,-43.819
1751.5,-43.793
1751.6,-43.806
1751.7,-43.816
1751.8,-43.787
1751.9,-43.799
1752,-43.772
1752.1,-43.748
1752.2,-43.778
1752.3,-43.787
1752.4,-43.81
1752.5,-43.822
1752.6,-43.792
1752.7,-43.767
1752.8,-43.719
1752.9,-43.697
1753,-43.697
1753.1,-43.691
1753.2,-43.717
1753.3,-43.727
1753.4,-43.737
1753.5,-43.78
1753.6,-43.796
1753.7,-43.838
1753.8,-43.823
1753.9,-43.803
1754,-43.922
1754.1,-43.935
1754.2,-43.91
1754.3,-43.917
1754.4,-43.912
1754.5,-43.903
1754.6,-43.856
1754.7,-43.81
1754.8,-43.831
1754.9,-43.804
1755,-43.809
1755.1,-43.824
1755.2,-43.85
1755.3,-43.85
1755.4,-43.878
1755.5,-43.861
1755.6,-43.878
1755.7,-43.897
1755.8,-43.849
1755.9,-43.838
1756,-43.833
1756.1,-43.84
1756.2,-43.881
1756.3,-43.883
1756.4,-43.859
1756.5,-43.838
1756.6,-43.823
1756.7,-43.847
1756.8,-43.883
1756.9,-43.846
1757,-43.89
1757.1,-43.874
1757.2,-43.857
1757.3,-43.87
1757.4,-43.828
1757.5,-43.796
1757.6,-43.802
1757.7,-43.844
1757.8,-43.916
1757.9,-43.898
1758,-43.867
1758.1,-43.875
1758.2,-43.864
1758.3,-43.843
1758.4,-43.854
1758.5,-43.836
1758.6,-43.853
1758.7,-43.918
1758.8,-43.942
1758.9,-43.964
1759,-43.943
1759.1,-43.902
1759.2,-43.897
1759.3,-43.913
1759.4,-43.91
1759.5,-43.916
1759.6,-43.928
1759.7,-43.979
1759.8,-44.04
1759.9,-44.032
1760,-44
1760.1,-43.966
1760.2,-43.914
1760.3,-43.933
1760.4,-43.958
1760.5,-43.974
1760.6,-43.967
1760.7,-43.968
1760.8,-43.96
1760.9,-43.99
1761,-43.993
1761.1,-43.981
1761.2,-43.947
1761.3,-43.933
1761.4,-43.956
1761.5,-43.98
1761.6,-43.989
1761.7,-43.98
1761.8,-43.97
1761.9,-43.938
1762,-43.989
1762.1,-43.995
1762.2,-43.996
1762.3,-43.972
1762.4,-43.982
1762.5,-44.006
1762.6,-44.027
1762.7,-44.044
1762.8,-44.043
1762.9,-44.037
1763,-44.016
1763.1,-44.043
1763.2,-44.064
1763.3,-44.073
1763.4,-44.073
1763.5,-44.057
1763.6,-44.07
1763.7,-44.105
1763.8,-44.103
1763.9,-44.066
1764,-44.011
1764.1,-44.02
1764.2,-44.053
1764.3,-44.095
1764.4,-44.141
1764.5,-44.102
1764.6,-44.092
1764.7,-44.123
1764.8,-44.108
1764.9,-44.116
1765,-44.097
1765.1,-44.078
1765.2,-44.125
1765.3,-44.164
1765.4,-44.155
1765.5,-44.135
1765.6,-44.098
1765.7,-44.064
1765.8,-44.138
1765.9,-44.175
1766,-44.161
1766.1,-44.164
1766.2,-44.131
1766.3,-44.182
1766.4,-44.181
1766.5,-44.202
1766.6,-44.189
1766.7,-44.135
1766.8,-44.153
1766.9,-44.205
1767,-44.237
1767.1,-44.218
1767.2,-44.207
1767.3,-44.184
1767.4,-44.184
1767.5,-44.216
1767.6,-44.216
1767.7,-44.208
1767.8,-44.153
1767.9,-44.195
1768,-44.26
1768.1,-44.253
1768.2,-44.254
1768.3,-44.212
1768.4,-44.183
1768.5,-44.212
1768.6,-44.258
1768.7,-44.255
1768.8,-44.216
1768.9,-44.228
1769,-44.245
1769.1,-44.315
1769.2,-44.312
1769.3,-44.306
1769.4,-44.276
1769.5,-44.243
1769.6,-44.29
1769.7,-44.318
1769.8,-44.316
1769.9,-44.278
1770,-44.292
1770.1,-44.314
1770.2,-44.346
1770.3,-44.361
1770.4,-44.358
1770.5,-44.327
1770.6,-44.331
1770.7,-44.39
1770.8,-44.436
1770.9,-44.452
1771,-44.409
1771.1,-44.375
1771.2,-44.354
1771.3,-44.369
1771.4,-44.369
1771.5,-44.333
1771.6,-44.287
1771.7,-44.331
1771.8,-44.372
1771.9,-44.415
1772,-44.41
1772.1,-44.337
1772.2,-44.32
1772.3,-44.346
1772.4,-44.368
1772.5,-44.413
1772.6,-44.411
1772.7,-44.377
1772.8,-44.4
1772.9,-44.455
1773,-44.452
1773.1,-44.467
1773.2,-44.439
1773.3,-44.408
1773.4,-44.459
1773.5,-44.517
1773.6,-44.516
1773.7,-44.464
1773.8,-44.45
1773.9,-44.424
1774,-44.458
1774.1,-44.464
1774.2,-44.48
1774.3,-44.465
1774.4,-44.437
1774.5,-44.527
1774.6,-44.578
1774.7,-44.584
1774.8,-44.563
1774.9,-44.523
1775,-44.521
1775.1,-44.527
1775.2,-44.566
1775.3,-44.571
1775.4,-44.521
1775.5,-44.537
1775.6,-44.577
1775.7,-44.625
1775.8,-44.638
1775.9,-44.645
1776,-44.588
1776.1,-44.586
1776.2,-44.606
1776.3,-44.635
1776.4,-44.663
1776.5,-44.595
1776.6,-44.564
1776.7,-44.608
1776.8,-44.621
1776.9,-44.649
1777,-44.639
1777.1,-44.615
1777.2,-44.673
1777.3,-44.736
1777.4,-44.76
1777.5,-44.775
1777.6,-44.709
1777.7,-44.685
1777.8,-44.738
1777.9,-44.775
1778,-44.819
1778.1,-44.765
1778.2,-44.762
1778.3,-44.817
1778.4,-44.875
1778.5,-44.911
1778.6,-44.92
1778.7,-44.839
1778.8,-44.799
1778.9,-44.853
1779,-44.831
1779.1,-44.849
1779.2,-44.819
1779.3,-44.779
1779.4,-44.79
1779.5,-44.834
1779.6,-44.89
1779.7,-44.871
1779.8,-44.848
1779.9,-44.86
1780,-44.922
1780.1,-44.993
1780.2,-45
1780.3,-44.923
1780.4,-44.892
1780.5,-44.895
1780.6,-44.933
1780.7,-44.981
1780.8,-44.992
1780.9,-44.946
1781,-44.967
1781.1,-45.039
1781.2,-45.03
1781.3,-45.029
1781.4,-45.007
1781.5,-44.952
1781.6,-45.016
1781.7,-45.038
1781.8,-45.034
1781.9,-45.039
1782,-44.964
1782.1,-44.951
1782.2,-44.996
1782.3,-45.038
1782.4,-45.068
1782.5,-45.073
1782.6,-45.025
1782.7,-45.011
1782.8,-45.105
1782.9,-45.11
1783,-45.1
1783.1,-45.056
1783.2,-45.001
1783.3,-45.009
1783.4,-45.061
1783.5,-45.135
1783.6,-45.092
1783.7,-45.074
1783.8,-45.084
1783.9,-45.158
1784,-45.266
1784.1,-45.282
1784.2,-45.246
1784.3,-45.145
1784.4,-45.132
1784.5,-45.184
1784.6,-45.22
1784.7,-45.228
1784.8,-45.201
1784.9,-45.215
1785,-45.242
1785.1,-45.29
1785.2,-45.291
1785.3,-45.254
1785.4,-45.151
1785.5,-45.137
1785.6,-45.187
1785.7,-45.205
1785.8,-45.175
1785.9,-45.133
1786,-45.078
1786.1,-45.115
1786.2,-45.177
1786.3,-45.224
1786.4,-45.252
1786.5,-45.214
1786.6,-45.23
1786.7,-45.272
1786.8,-45.298
1786.9,-45.26
1787,-45.214
1787.1,-45.178
1787.2,-45.197
1787.3,-45.258
1787.4,-45.303
1787.5,-45.311
1787.6,-45.338
1787.7,-45.373
1787.8,-45.427
1787.9,-45.445
1788,-45.45
1788.1,-45.45
1788.2,-45.353
1788.3,-45.342
1788.4,-45.364
1788.5,-45.317
1788.6,-45.324
1788.7,-45.295
1788.8,-45.309
1788.9,-45.396
1789,-45.452
1789.1,-45.469
1789.2,-45.422
1789.3,-45.387
1789.4,-45.392
1789.5,-45.405
1789.6,-45.382
1789.7,-45.36
1789.8,-45.284
1789.9,-45.275
1790,-45.31
1790.1,-45.36
1790.2,-45.391
1790.3,-45.371
1790.4,-45.401
1790.5,-45.421
1790.6,-45.518
1790.7,-45.573
1790.8,-45.589
1790.9,-45.528
1791,-45.462
1791.1,-45.448
1791.2,-45.494
1791.3,-45.523
1791.4,-45.485
1791.5,-45.476
1791.6,-45.54
1791.7,-45.586
1791.8,-45.654
1791.9,-45.651
1792,-45.574
1792.1,-45.532
1792.2,-45.54
1792.3,-45.542
1792.4,-45.576
1792.5,-45.53
1792.6,-45.454
1792.7,-45.437
1792.8,-45.457
1792.9,-45.51
1793,-45.505
1793.1,-45.502
1793.2,-45.492
1793.3,-45.508
1793.4,-45.625
1793.5,-45.647
1793.6,-45.621
1793.7,-45.603
1793.8,-45.54
1793.9,-45.503
1794,-45.575
1794.1,-45.592
1794.2,-45.57
1794.3,-45.57
1794.4,-45.566
1794.5,-45.65
1794.6,-45.716
1794.7,-45.727
1794.8,-45.678
1794.9,-45.641
1795,-45.652
1795.1,-45.688
1795.2,-45.695
1795.3,-45.652
1795.4,-45.573
1795.5,-45.525
1795.6,-45.581
1795.7,-45.673
1795.8,-45.75
1795.9,-45.737
1796,-45.699
1796.1,-45.706
1796.2,-45.787
1796.3,-45.824
1796.4,-45.789
1796.5,-45.71
1796.6,-45.679
1796.7,-45.708
1796.8,-45.788
1796.9,-45.823
1797,-45.81
1797.1,-45.754
1797.2,-45.718
1797.3,-45.784
1797.4,-45.91
1797.5,-45.905
1797.6,-45.846
1797.7,-45.751
1797.8,-45.688
1797.9,-45.721
1798,-45.754
1798.1,-45.753
1798.2,-45.729
1798.3,-45.691
1798.4,-45.711
1798.5,-45.786
1798.6,-45.82
1798.7,-45.818
1798.8,-45.798
1798.9,-45.748
1799,-45.821
1799.1,-45.881
1799.2,-45.925
1799.3,-45.873
1799.4,-45.776
1799.5,-45.768
1799.6,-45.858
1799.7,-45.877
1799.8,-45.949
1799.9,-45.962
1800,-45.888
1800.1,-45.935
1800.2,-46.027
1800.3,-46.094
1800.4,-46.031
1800.5,-45.961
1800.6,-45.812
1800.7,-45.814
1800.8,-45.902
1800.9,-45.934
1801,-46.012
1801.1,-46.008
1801.2,-46.014
1801.3,-45.998
1801.4,-46.001
1801.5,-45.998
1801.6,-45.917
1801.7,-45.893
1801.8,-45.884
1801.9,-45.872
1802,-45.992
1802.1,-45.959
1802.2,-45.915
1802.3,-45.856
1802.4,-45.826
1802.5,-45.979
1802.6,-46.024
1802.7,-45.966
1802.8,-45.954
1802.9,-45.891
1803,-45.939
1803.1,-46.032
1803.2,-46.007
1803.3,-45.943
1803.4,-45.862
1803.5,-45.812
1803.6,-45.823
1803.7,-45.89
1803.8,-45.892
1803.9,-45.825
1804,-45.854
1804.1,-45.867
1804.2,-45.928
1804.3,-45.984
1804.4,-45.939
1804.5,-45.862
1804.6,-45.827
1804.7,-45.827
1804.8,-45.871
1804.9,-45.913
1805,-45.84
1805.1,-45.847
1805.2,-45.845
1805.3,-45.889
1805.4,-46.034
1805.5,-46.086
1805.6,-46.029
1805.7,-46.033
1805.8,-46.043
1805.9,-46.098
1806,-46.255
1806.1,-46.283
1806.2,-46.244
1806.3,-46.148
1806.4,-46.036
1806.5,-45.962
1806.6,-45.982
1806.7,-45.904
1806.8,-45.899
1806.9,-45.924
1807,-45.966
1807.1,-46.094
1807.2,-46.148
1807.3,-46.11
1807.4,-46.027
1807.5,-46.029
1807.6,-45.994
1807.7,-46.042
1807.8,-46.037
1807.9,-45.943
1808,-45.894
1808.1,-45.955
1808.2,-46.09
1808.3,-46.122
1808.4,-46.196
1808.5,-46.132
1808.6,-46.094
1808.7,-46.084
1808.8,-46.175
1808.9,-46.178
1809,-46.089
1809.1,-45.987
1809.2,-45.918
1809.3,-45.925
1809.4,-46.001
1809.5,-46.033
1809.6,-46.018
1809.7,-45.973
1809.8,-46.027
1809.9,-46.083
1810,-46.165
1810.1,-46.117
1810.2,-46.034
1810.3,-46.052
1810.4,-46.051
1810.5,-46.149
1810.6,-46.174
1810.7,-46.166
1810.8,-46.228
1810.9,-46.268
1811,-46.46
1811.1,-46.566
1811.2,-46.41
1811.3,-46.286
1811.4,-46.095
1811.5,-46.006
1811.6,-46.042
1811.7,-46.14
1811.8,-46.108
1811.9,-46.136
1812,-46.167
1812.1,-46.147
1812.2,-46.219
1812.3,-46.214
1812.4,-46.151
1812.5,-46.209
1812.6,-46.265
1812.7,-46.398
1812.8,-46.525
1812.9,-46.424
1813,-46.26
1813.1,-46.05
1813.2,-45.886
1813.3,-45.928
1813.4,-46.052
1813.5,-46.06
1813.6,-46.084
1813.7,-46.072
1813.8,-46.068
1813.9,-46.073
1814,-46.152
1814.1,-46.145
1814.2,-46.049
1814.3,-46.003
1814.4,-45.979
1814.5,-45.975
1814.6,-46.015
1814.7,-46.025
1814.8,-46.044
1814.9,-46.061
1815,-46.115
1815.1,-46.192
1815.2,-46.156
1815.3,-46.227
1815.4,-46.542
1815.5,-46.861
1815.6,-46.936
1815.7,-46.9
1815.8,-46.504
1815.9,-46.081
1816,-46.002
1816.1,-46.071
1816.2,-46.139
1816.3,-46.16
1816.4,-46.198
1816.5,-46.08
1816.6,-45.977
1816.7,-46.043
1816.8,-46.306
1816.9,-46.348
1817,-46.288
1817.1,-46.16
1817.2,-45.878
1817.3,-45.855
1817.4,-45.847
1817.5,-45.862
1817.6,-45.855
1817.7,-45.842
1817.8,-45.876
1817.9,-45.963
1818,-46.028
1818.1,-46.064
1818.2,-46.073
1818.3,-46.213
1818.4,-46.257
1818.5,-46.355
1818.6,-46.434
1818.7,-46.194
1818.8,-46.067
1818.9,-45.981
1819,-45.847
1819.1,-45.905
1819.2,-45.955
1819.3,-45.94
1819.4,-45.944
1819.5,-45.952
1819.6,-46.004
1819.7,-46.065
1819.8,-46.122
1819.9,-46.014
1820,-45.997
1820.1,-46.282
1820.2,-46.595
1820.3,-47.166
1820.4,-47.655
1820.5,-47.307
1820.6,-47.177
1820.7,-46.76
1820.8,-46.354
1820.9,-46.265
1821,-46.078
1821.1,-46.017
1821.2,-45.907
1821.3,-46.18
1821.4,-46.365
1821.5,-46.438
1821.6,-46.411
1821.7,-46.05
1821.8,-46.009
1821.9,-46.453
1822,-46.583
1822.1,-46.634
1822.2,-46.462
1822.3,-45.981
1822.4,-45.895
1822.5,-46.004
1822.6,-46.137
1822.7,-46.2
1822.8,-46.127
1822.9,-45.882
1823,-45.785
1823.1,-45.791
1823.2,-45.809
1823.3,-45.841
1823.4,-45.781
1823.5,-45.704
1823.6,-45.758
1823.7,-45.814
1823.8,-45.89
1823.9,-45.931
1824,-45.814
1824.1,-45.746
1824.2,-45.738
1824.3,-45.732
1824.4,-45.806
1824.5,-45.803
1824.6,-45.759
1824.7,-45.811
1824.8,-45.851
1824.9,-45.888
1825,-45.953
1825.1,-45.891
1825.2,-45.844
1825.3,-45.78
1825.4,-45.848
1825.5,-45.924
1825.6,-45.914
1825.7,-45.899
1825.8,-45.86
1825.9,-45.983
1826,-46.592
1826.1,-47.521
1826.2,-48.336
1826.3,-48.676
1826.4,-47.92
1826.5,-46.985
1826.6,-46.432
1826.7,-46.155
1826.8,-46.052
1826.9,-45.898
1827,-45.819
1827.1,-45.778
1827.2,-45.794
1827.3,-45.781
1827.4,-45.769
1827.5,-45.825
1827.6,-45.851
1827.7,-45.859
1827.8,-45.882
1827.9,-45.975
1828,-45.963
1828.1,-46.055
1828.2,-46.255
1828.3,-46.114
1828.4,-46.172
1828.5,-46.033
1828.6,-45.968
1828.7,-46.337
1828.8,-46.598
1828.9,-46.679
1829,-46.67
1829.1,-46.254
1829.2,-45.867
1829.3,-45.762
1829.4,-45.757
1829.5,-45.811
1829.6,-45.879
1829.7,-45.908
1829.8,-46.016
1829.9,-46.421
1830,-46.695
1830.1,-46.72
1830.2,-46.606
1830.3,-46.091
1830.4,-45.862
1830.5,-45.795
1830.6,-45.816
1830.7,-45.984
1830.8,-45.765
1830.9,-46.256
1831,-46.945
1831.1,-47.409
1831.2,-47.347
1831.3,-47.141
1831.4,-46.404
1831.5,-45.913
1831.6,-45.746
1831.7,-45.692
1831.8,-45.71
1831.9,-45.747
1832,-45.783
1832.1,-45.773
1832.2,-45.794
1832.3,-45.748
1832.4,-46.01
1832.5,-46.445
1832.6,-46.595
1832.7,-46.538
1832.8,-46.252
1832.9,-45.82
1833,-45.822
1833.1,-45.879
1833.2,-45.898
1833.3,-45.837
1833.4,-45.734
1833.5,-45.758
1833.6,-45.884
1833.7,-45.932
1833.8,-45.905
1833.9,-45.876
1834,-45.813
1834.1,-45.82
1834.2,-45.833
1834.3,-45.892
1834.4,-45.903
1834.5,-45.847
1834.6,-45.83
1834.7,-45.941
1834.8,-46.491
1834.9,-47.112
1835,-47.222
1835.1,-47.022
1835.2,-46.415
1835.3,-45.825
1835.4,-45.796
1835.5,-45.809
1835.6,-45.85
1835.7,-45.821
1835.8,-45.852
1835.9,-45.967
1836,-46.546
1836.1,-47.342
1836.2,-47.704
1836.3,-48.1
1836.4,-47.358
1836.5,-46.564
1836.6,-46.265
1836.7,-45.89
1836.8,-45.744
1836.9,-45.691
1837,-45.66
1837.1,-45.715
1837.2,-46.081
1837.3,-46.502
1837.4,-46.576
1837.5,-46.586
1837.6,-46.79
1837.7,-47.301
1837.8,-47.538
1837.9,-47.494
1838,-46.898
1838.1,-45.987
1838.2,-45.763
1838.3,-45.759
1838.4,-45.776
1838.5,-45.832
1838.6,-45.798
1838.7,-45.728
1838.8,-45.719
1838.9,-45.749
1839,-45.801
1839.1,-45.773
1839.2,-45.77
1839.3,-45.739
1839.4,-45.762
1839.5,-45.884
1839.6,-46.316
1839.7,-47.354
1839.8,-47.75
1839.9,-47.678
1840,-47.169
1840.1,-46.284
1840.2,-46.141
1840.3,-46.156
1840.4,-46.045
1840.5,-45.974
1840.6,-45.73
1840.7,-45.669
1840.8,-45.711
1840.9,-45.668
1841,-45.617
1841.1,-45.553
1841.2,-45.629
1841.3,-46.011
1841.4,-46.541
1841.5,-46.689
1841.6,-46.675
1841.7,-46.576
1841.8,-47.036
1841.9,-47.59
1842,-47.716
1842.1,-47.44
1842.2,-46.488
1842.3,-46.075
1842.4,-46.205
1842.5,-46.24
1842.6,-46.191
1842.7,-46.019
1842.8,-45.699
1842.9,-45.592
1843,-45.598
1843.1,-45.631
1843.2,-45.7
1843.3,-45.816
1843.4,-45.777
1843.5,-45.724
1843.6,-45.692
1843.7,-45.658
1843.8,-45.753
1843.9,-45.77
1844,-45.717
1844.1,-45.65
1844.2,-45.571
1844.3,-45.539
1844.4,-45.624
1844.5,-45.622
1844.6,-45.581
1844.7,-45.536
1844.8,-45.626
1844.9,-45.664
1845,-45.64
1845.1,-45.512
1845.2,-45.391
1845.3,-45.356
1845.4,-45.424
1845.5,-45.581
1845.6,-45.68
1845.7,-45.754
1845.8,-45.668
1845.9,-45.629
1846,-45.633
1846.1,-45.662
1846.2,-45.723
1846.3,-45.849
1846.4,-45.858
1846.5,-45.887
1846.6,-45.996
1846.7,-46.131
1846.8,-47.093
1846.9,-48.166
1847,-48.741
1847.1,-48.504
1847.2,-47.28
1847.3,-46.309
1847.4,-45.969
1847.5,-45.893
1847.6,-45.869
1847.7,-46.076
1847.8,-46.75
1847.9,-47.433
1848,-47.86
1848.1,-47.466
1848.2,-46.684
1848.3,-46.315
1848.4,-46.613
1848.5,-46.806
1848.6,-46.817
1848.7,-46.581
1848.8,-45.901
1848.9,-45.703
1849,-45.765
1849.1,-45.873
1849.2,-45.879
1849.3,-45.809
1849.4,-45.615
1849.5,-45.545
1849.6,-45.527
1849.7,-45.581
1849.8,-45.657
1849.9,-45.568
1850,-45.582
1850.1,-45.588
1850.2,-45.724
1850.3,-46.085
1850.4,-46.19
1850.5,-46.184
1850.6,-46.05
1850.7,-45.724
1850.8,-45.703
1850.9,-45.721
1851,-45.696
1851.1,-45.628
1851.2,-45.558
1851.3,-45.408
1851.4,-45.411
1851.5,-45.494
1851.6,-45.592
1851.7,-45.634
1851.8,-45.642
1851.9,-45.624
1852,-45.624
1852.1,-45.573
1852.2,-45.557
1852.3,-45.564
1852.4,-45.525
1852.5,-45.498
1852.6,-45.525
1852.7,-45.714
1852.8,-46.328
1852.9,-46.746
1853,-46.766
1853.1,-46.64
1853.2,-45.99
1853.3,-45.703
1853.4,-45.726
1853.5,-45.703
1853.6,-45.727
1853.7,-46.039
1853.8,-47.079
1853.9,-47.884
1854,-48.022
1854.1,-47.574
1854.2,-46.497
1854.3,-45.925
1854.4,-45.798
1854.5,-45.821
1854.6,-45.807
1854.7,-45.815
1854.8,-45.756
1854.9,-45.744
1855,-45.779
1855.1,-45.748
1855.2,-45.732
1855.3,-45.645
1855.4,-45.625
1855.5,-45.598
1855.6,-45.621
1855.7,-45.728
1855.8,-45.784
1855.9,-45.803
1856,-45.807
1856.1,-45.773
1856.2,-45.869
1856.3,-46.132
1856.4,-46.495
1856.5,-47.42
1856.6,-47.735
1856.7,-47.587
1856.8,-47.194
1856.9,-46.281
1857,-45.889
1857.1,-45.795
1857.2,-45.759
1857.3,-45.966
1857.4,-46.104
1857.5,-46.205
1857.6,-46.269
1857.7,-45.985
1857.8,-45.846
1857.9,-45.829
1858,-45.83
1858.1,-45.83
1858.2,-45.776
1858.3,-45.773
1858.4,-45.735
1858.5,-45.739
1858.6,-45.779
1858.7,-45.816
1858.8,-45.848
1858.9,-45.895
1859,-45.883
1859.1,-45.934
1859.2,-45.991
1859.3,-46.132
1859.4,-46.397
1859.5,-47.154
1859.6,-48.085
1859.7,-48.251
1859.8,-48.131
1859.9,-47.23
1860,-46.336
1860.1,-46.16
1860.2,-46.249
1860.3,-46.262
1860.4,-46.476
1860.5,-46.942
1860.6,-46.997
1860.7,-46.943
1860.8,-46.725
1860.9,-46.205
1861,-46.107
1861.1,-46.045
1861.2,-45.988
1861.3,-45.973
1861.4,-45.92
1861.5,-45.88
1861.6,-45.876
1861.7,-45.962
1861.8,-46.054
1861.9,-46.046
1862,-46.05
1862.1,-46.058
1862.2,-46.053
1862.3,-46.038
1862.4,-46.062
1862.5,-46.106
1862.6,-46.093
1862.7,-46.035
1862.8,-46.038
1862.9,-46.088
1863,-46.142
1863.1,-46.179
1863.2,-46.146
1863.3,-46.089
1863.4,-46.064
1863.5,-46.082
1863.6,-46.151
1863.7,-46.137
1863.8,-46.107
1863.9,-46.219
1864,-46.663
1864.1,-46.786
1864.2,-46.825
1864.3,-46.781
1864.4,-46.415
1864.5,-46.34
1864.6,-46.341
1864.7,-46.311
1864.8,-46.216
1864.9,-46.309
1865,-46.228
1865.1,-46.223
1865.2,-46.215
1865.3,-46.137
1865.4,-46.152
1865.5,-46.132
1865.6,-46.089
1865.7,-46.044
1865.8,-46.015
1865.9,-46.025
1866,-46.094
1866.1,-46.095
1866.2,-46.119
1866.3,-46.122
1866.4,-46.136
1866.5,-46.19
1866.6,-46.188
1866.7,-46.215
1866.8,-46.133
1866.9,-46.113
1867,-46.13
1867.1,-46.215
1867.2,-46.673
1867.3,-46.909
1867.4,-47.045
1867.5,-47.518
1867.6,-47.669
1867.7,-47.769
1867.8,-48.069
1867.9,-47.802
1868,-48.082
1868.1,-47.949
1868.2,-47.584
1868.3,-47.151
1868.4,-46.474
1868.5,-46.358
1868.6,-46.269
1868.7,-46.259
1868.8,-46.259
1868.9,-46.293
1869,-46.357
1869.1,-46.36
1869.2,-46.49
1869.3,-46.794
1869.4,-47.388
1869.5,-47.497
1869.6,-47.339
1869.7,-46.957
1869.8,-46.529
1869.9,-46.448
1870,-46.476
1870.1,-46.518
1870.2,-46.481
1870.3,-46.464
1870.4,-46.443
1870.5,-46.54
1870.6,-47.137
1870.7,-48.168
1870.8,-49.639
1870.9,-50.244
1871,-49.18
1871.1,-48.122
1871.2,-47.465
1871.3,-47.09
1871.4,-47.022
1871.5,-47.044
1871.6,-46.918
1871.7,-46.805
1871.8,-46.701
1871.9,-46.582
1872,-46.383
1872.1,-46.352
1872.2,-46.39
1872.3,-46.422
1872.4,-46.417
1872.5,-46.486
1872.6,-46.587
1872.7,-46.859
1872.8,-47.703
1872.9,-48.745
1873,-49.468
1873.1,-49.707
1873.2,-49.027
1873.3,-48.075
1873.4,-47.404
1873.5,-47.14
1873.6,-46.851
1873.7,-47.123
1873.8,-47.611
1873.9,-47.616
1874,-47.515
1874.1,-46.936
1874.2,-46.516
1874.3,-46.439
1874.4,-46.432
1874.5,-46.442
1874.6,-46.454
1874.7,-46.444
1874.8,-46.385
1874.9,-46.377
1875,-46.502
1875.1,-46.835
1875.2,-47.515
1875.3,-47.674
1875.4,-47.607
1875.5,-47.242
1875.6,-46.636
1875.7,-46.529
1875.8,-46.465
1875.9,-46.512
1876,-46.495
1876.1,-46.432
1876.2,-46.482
1876.3,-46.484
1876.4,-46.558
1876.5,-46.654
1876.6,-46.739
1876.7,-46.906
1876.8,-47.72
1876.9,-48.444
1877,-48.55
1877.1,-48.533
1877.2,-47.545
1877.3,-46.938
1877.4,-46.748
1877.5,-46.548
1877.6,-46.505
1877.7,-46.55
1877.8,-46.552
1877.9,-46.568
1878,-46.673
1878.1,-46.775
1878.2,-46.763
1878.3,-46.766
1878.4,-46.637
1878.5,-46.546
1878.6,-46.512
1878.7,-46.531
1878.8,-46.498
1878.9,-46.501
1879,-46.503
1879.1,-46.494
1879.2,-46.534
1879.3,-46.611
1879.4,-46.66
1879.5,-46.679
1879.6,-46.648
1879.7,-46.608
1879.8,-46.628
1879.9,-46.617
1880,-46.645
1880.1,-46.607
1880.2,-46.633
1880.3,-46.635
1880.4,-46.589
1880.5,-46.618
1880.6,-46.64
1880.7,-46.772
1880.8,-46.983
1880.9,-47.03
1881,-46.998
1881.1,-46.854
1881.2,-46.668
1881.3,-46.696
1881.4,-46.732
1881.5,-46.735
1881.6,-46.719
1881.7,-46.669
1881.8,-46.626
1881.9,-46.583
1882,-46.6
1882.1,-46.614
1882.2,-46.577
1882.3,-46.573
1882.4,-46.628
1882.5,-46.619
1882.6,-46.666
1882.7,-46.698
1882.8,-46.697
1882.9,-46.685
1883,-46.648
1883.1,-46.683
1883.2,-46.694
1883.3,-46.686
1883.4,-46.699
1883.5,-46.728
1883.6,-46.766
1883.7,-46.899
1883.8,-47.349
1883.9,-48.113
1884,-48.4
1884.1,-48.321
1884.2,-47.863
1884.3,-47.099
1884.4,-46.909
1884.5,-46.83
1884.6,-46.762
1884.7,-46.735
1884.8,-46.708
1884.9,-46.692
1885,-46.727
1885.1,-46.755
1885.2,-46.732
1885.3,-46.769
1885.4,-46.919
1885.5,-47.012
1885.6,-47.018
1885.7,-47.023
1885.8,-46.877
1885.9,-46.797
1886,-46.784
1886.1,-46.762
1886.2,-46.771
1886.3,-46.774
1886.4,-46.819
1886.5,-46.863
1886.6,-47.138
1886.7,-47.34
1886.8,-47.389
1886.9,-47.335
1887,-47.047
1887.1,-46.905
1887.2,-46.839
1887.3,-46.854
1887.4,-46.894
1887.5,-46.868
1887.6,-46.855
1887.7,-46.797
1887.8,-46.767
1887.9,-46.792
1888,-46.805
1888.1,-46.838
1888.2,-46.833
1888.3,-46.828
1888.4,-46.836
1888.5,-46.833
1888.6,-46.855
1888.7,-46.896
1888.8,-46.88
1888.9,-46.889
1889,-46.886
1889.1,-46.897
1889.2,-46.929
1889.3,-46.941
1889.4,-46.931
1889.5,-46.985
1889.6,-46.995
1889.7,-47.003
1889.8,-47.088
1889.9,-47.332
1890,-48.233
1890.1,-48.704
1890.2,-48.743
1890.3,-48.401
1890.4,-47.455
1890.5,-47.105
1890.6,-47.056
1890.7,-46.993
1890.8,-46.937
1890.9,-46.925
1891,-46.898
1891.1,-46.957
1891.2,-46.991
1891.3,-47.007
1891.4,-47.021
1891.5,-47.008
1891.6,-46.987
1891.7,-46.993
1891.8,-47.077
1891.9,-47.365
1892,-47.885
1892.1,-47.977
1892.2,-47.927
1892.3,-47.606
1892.4,-47.157
1892.5,-47.036
1892.6,-47.053
1892.7,-47.031
1892.8,-47.061
1892.9,-47.099
1893,-47.117
1893.1,-47.12
1893.2,-47.103
1893.3,-47.091
1893.4,-47.117
1893.5,-47.163
1893.6,-47.47
1893.7,-47.729
1893.8,-47.755
1893.9,-47.669
1894,-47.334
1894.1,-47.086
1894.2,-47.067
1894.3,-47.044
1894.4,-47.054
1894.5,-47.03
1894.6,-47.079
1894.7,-47.107
1894.8,-47.09
1894.9,-47.118
1895,-47.067
1895.1,-47.023
1895.2,-47.001
1895.3,-46.974
1895.4,-46.951
1895.5,-46.979
1895.6,-47.005
1895.7,-47.032
1895.8,-47.016
1895.9,-47.034
1896,-47.021
1896.1,-47.047
1896.2,-47.06
1896.3,-47.059
1896.4,-47.086
1896.5,-47.084
1896.6,-47.108
1896.7,-47.083
1896.8,-47.097
1896.9,-47.061
1897,-47.048
1897.1,-47.044
1897.2,-47.058
1897.3,-47.068
1897.4,-47.13
1897.5,-47.289
1897.6,-47.836
1897.7,-48.04
1897.8,-48.032
1897.9,-47.866
1898,-47.313
1898.1,-47.132
1898.2,-47.12
1898.3,-47.089
1898.4,-47.092
1898.5,-47.08
1898.6,-47.158
1898.7,-47.457
1898.8,-47.67
1898.9,-47.669
1899,-47.631
1899.1,-47.388
1899.2,-47.28
1899.3,-47.471
1899.4,-48.089
1899.5,-49.194
1899.6,-49.534
1899.7,-49.327
1899.8,-48.45
1899.9,-47.57
1900,-47.338